mz	intensity
74.02046082	8613.263184
74.02117235	10637.88965
90.0548956	12872.84863
97.00500017	18821.35
98.99513276	12802.7832
98.99549731	72097.40547
100.9936178	9323.809082
101.0031315	10238.28516
101.0596839	12747.15156
101.3288644	8344.006836
101.5151598	11931.23145
101.7249066	11686.70508
101.730779	8740.133789
101.7331486	10374.21257
101.734434	10770.02669
101.7368648	9799.220703
101.7373663	9524.369141
101.7385886	8705.360352
101.7389856	10587.40674
101.7398279	9090.707031
101.7407045	8751.54541
101.7412149	10525.96191
101.7419822	11571.14551
101.742379	10879.85286
101.7428539	12395.38021
101.7432483	11040.6377
101.7435612	11659.7959
101.7441245	13378.02832
101.7445768	12998.0472
101.7448936	8598.041341
101.7454144	15360.24121
101.7457784	13311.69727
101.7462246	9198.81543
101.7465827	9317.548828
101.7470482	13819.6416
101.7475282	12934.6123
101.7482601	11398.20557
101.7485394	13288.81445
101.7487646	8997.902018
101.7489931	10056.71094
101.7492382	10171.16016
101.7494573	13255.49707
101.749861	10487.81445
101.7502185	10495.19564
101.7504497	11498.95313
101.7509464	15222.80176
101.7513409	10959.12728
101.7516452	18435.16211
101.7518654	13737.86556
101.7521226	16799.89323
101.7524778	14020.26318
101.7528417	13287.0896
101.7532047	13445.34408
101.753576	13276.54346
101.7538356	16167.69238
101.7541861	13903.43726
101.7544147	23366.31445
101.7550605	13738.53789
101.7555548	12410.43384
101.7558734	12750.40991
101.7563155	13044.10921
101.7565236	9199.835938
101.7567295	15378.78589
101.7570336	11434.75195
101.7573187	12587.46802
101.7577033	13563.13737
101.7580049	18487.98047
101.7582508	12724.55005
101.7585013	13712.0293
101.7587575	13689.15088
101.7590742	13636.61445
101.7593624	14131.68848
101.7598661	17456.72363
101.7601168	15449.81185
101.7605661	13179.40942
101.7609462	14796.07194
101.761181	23557.6167
101.7615179	21136.52344
101.7617477	20404.54655
101.7621455	17139.87549
101.7624037	24652.13086
101.7628473	17598.80371
101.7632222	16064.50944
101.7635351	18059.02214
101.7638225	17800.43457
101.7640874	17466.22388
101.7643541	16809.22119
101.7646448	23058.54492
101.7648656	14003.84399
101.765308	18708.80625
101.7656236	15038.85693
101.7658307	10065.39355
101.7661237	15516.21582
101.7664221	17124.80957
101.767006	15024.33073
101.7673591	13129.00814
101.7676044	17648.50716
101.76789	12863.08561
101.7681041	10283.62012
101.7683658	15892.03101
101.7686505	15350.32568
101.7690277	16189.16943
101.7693442	17336.78174
101.7697497	13168.26758
101.7703101	23437.62061
101.7707667	19547.97031
101.7712168	20827.77441
101.7714831	20472.05688
101.7718365	23410.30742
101.7721972	23120.32227
101.7725952	24725.21517
101.7729089	22145.01172
101.7732534	30237.46802
101.7735458	11897.20117
101.7738034	19859.12402
101.7741307	17519.23893
101.7744322	19295.61938
101.7747238	24183.3707
101.7751794	23304.31641
101.7755206	27384.1082
101.7758508	25721.55859
101.7762177	22036.95391
101.7765367	19517.46021
101.776828	17794.99023
101.7771537	18994.93335
101.7775382	17184.70059
101.7778688	18549.11289
101.7782204	21589.25615
101.7785001	16999.56665
101.7787735	28501.66162
101.779066	24931.25749
101.7794927	23210.05176
101.7798221	25248.60059
101.7800812	18448.95605
101.780432	18880.9002
101.7808215	22921.21582
101.7813647	44323.04844
101.7816921	37246.89063
101.7821341	31825.35391
101.7823869	22417.58984
101.7826207	21981.64795
101.7829731	27326.46211
101.7833626	18953.06283
101.7836442	21269.42773
101.7839257	21491.22363
101.7842228	25860.25781
101.7844768	24141.55566
101.7847904	20552.31315
101.7850516	19252.63037
101.7854406	16863.5813
101.7857269	14108.65625
101.7859376	16810.8084
101.7862239	21701.58984
101.7864732	15446.2666
101.7867404	13122.5918
101.7871732	22781.01172
101.7874217	17450.26953
101.7877195	16440.3103
101.7880145	13611.45908
101.788481	17312.31494
101.7887931	14378.45703
101.7892015	18723.97852
101.7894979	14677.23657
101.7898518	14704.00456
101.7900745	11124.88086
101.7904173	15489.73477
101.790799	16567.24219
101.7910301	16948.35156
101.7913553	20658.18359
101.7916878	14688.52246
101.791949	18005.43262
101.7922843	12477.59912
101.7926717	12682.97937
101.7929919	14133.54663
101.7933324	11985.30127
101.7936176	11615.35742
101.7940599	13269.20117
101.7944506	10562.26025
101.7948366	10600.13232
101.7953338	10617.75391
101.7955604	11889.96582
101.7958964	11295.17749
101.7962994	9237.704102
101.796558	11161.13281
101.7970471	13866.62207
101.7973929	12834.94727
101.7977311	9252.149902
101.7981962	10399.77734
101.7994521	10127.88867
101.800299	9058.65918
101.8008613	8851.022135
101.803208	9156.72168
101.8037945	8334.551758
101.8055535	7960.443359
101.8059029	11767.52637
102.0913182	12265.94141
103.0389504	37905.57891
104.0705735	10076.65039
104.1069734	22223.40039
105.0032463	12047.88105
106.9505614	11485.47168
110.0712643	17410.45166
112.0518611	11982.94219
112.0522979	103488.4875
112.0526436	9647.634766
112.0869171	22826.97578
113.0083516	8658.958984
113.0209123	16465.5957
114.0504089	9473.53125
114.0661813	49540.10859
115.0365571	21032.64297
116.0706016	12948.47949
116.977101	17133.54316
118.0853487	13297.23398
118.0856762	16603.47051
118.0862543	232182.6406
118.0866662	21441.57031
119.0189351	13145.21118
119.0896101	12689.22095
121.0683839	10826.80078
122.9245307	11886.76074
123.0138339	25969.66289
123.0552932	15589.85605
126.0219468	25824.57109
128.0108405	30984.98945
128.9948631	35887.76758
129.0658449	10104.94596
130.0487455	10138.99089
130.0492105	32467.46875
130.0498723	116391.25
130.0503503	11000.17578
130.0862673	9790.11084
131.009359	8791.975586
131.0098404	34363.55039
131.0105131	103852.8156
131.0182621	15275.59922
131.0189378	47892.75
131.0532449	12402.3084
131.1066459	8484.672852
131.3483587	8767.02832
131.348785	9713.973633
131.353029	15262.72949
131.353887	13482.4069
131.3546128	13864.23535
131.3550168	9010.011719
131.7115162	13025.85189
131.7119114	13085.78442
131.7125184	9699.538086
131.7136968	14157.18652
131.714112	15990.22412
131.7144516	12014.89551
132.0197032	11468.97949
132.0654516	11784.49048
132.0686805	8314.646484
132.0706406	8087.078613
132.0710305	9946.357422
132.071345	8628.829427
132.0717382	9196.400781
132.0721443	10687.35527
132.0724504	11522.57861
132.072803	12908.50352
132.0731979	13762.94795
132.0735202	15425.17773
132.073792	17824.84668
132.0741609	21670.35625
132.0745883	40797.38828
132.0750135	94486.6375
132.0755774	497829.875
132.0761067	2221149.65
132.0766632	22394958.8
132.0771874	2578251.45
132.0780178	52707.48203
132.0783695	31889.36797
132.078798	26919.48848
132.0791121	21600.11445
132.0794313	20190.06406
132.0797476	18418.21367
132.0800659	15499.61982
132.0803837	14686.32578
132.0807022	12903.49102
132.0810171	11886.03926
132.0813383	10547.92832
132.0817345	9943.390723
132.0820764	9744.192993
132.0824366	9267.513086
132.0828158	8919.133219
132.0835429	8227.357422
132.0844906	9495.358643
132.1007811	17385.02578
132.1012454	66431.62031
132.1019074	230016.2875
132.1024806	21134.74336
132.4408849	13017.25366
132.4414667	14513.6709
132.44238	8280.886719
132.4428706	10398.59766
132.4433315	12247.00977
132.443736	11954.08789
132.8061301	11048.63379
132.806845	11281.05762
132.8072174	10740.83757
132.8080167	12931.25586
132.8082948	12830.27637
132.8123654	9919.098633
132.8135751	10487.40918
132.9720242	11461.96465
133.0086197	15524.43242
133.0164826	13594.71899
133.0317566	9610.767253
133.0345826	24288.2582
133.0607837	10864.5916
133.0726135	11321.77246
133.0731336	38911.33711
133.0738021	138630.2891
133.0743381	12128.43867
133.0785093	10844.17773
133.0789333	43225.90781
133.0794668	158022.9
133.080109	619363.3
133.0806208	56542.18945
133.0811044	9814.40625
133.0830527	18597.34727
133.0971525	11216.00801
133.1052745	14638.40273
134.0269342	8235.527344
134.0448197	9392.499023
134.0771671	8365.977539
134.080317	12137.19678
134.0809843	61874.67813
134.0834439	13087.45508
134.996458	16263.44775
135.0021321	8592.006836
135.0028378	47317.57344
135.0804149	10092.26693
135.1015528	9919.214193
135.5282134	15993.72461
136.0469056	26400.81953
136.0474262	66418.05313
136.048118	483336.8875
136.0486948	39466.98568
136.0610447	9510.974854
136.0617689	49657.42109
136.0732462	10530.55737
136.9393431	17185.25859
136.9400525	99848.03906
137.0065621	10569.4751
137.0294896	28165.28574
137.0450855	8109.644531
137.0457772	73321.50391
137.0514962	18662.52578
137.0572718	15795.90273
138.0316246	9110.885254
138.0525901	11640.66504
138.9380804	9208.609375
138.9641453	20064.41172
139.0148612	10885.89258
139.0155984	75953.80938
139.0161247	9483.333008
139.0365841	11188.99976
139.0502079	8841.293945
139.1117484	9278.584961
140.0669131	39969.41953
140.0674761	107014.3156
140.0681915	694764.425
140.0687128	64005.56771
140.9948841	23363.40938
141.015079	9144.206055
141.0158592	49735.87891
141.0715798	28847.73828
141.0910237	9310.571289
142.0264112	12151.20898
142.0474996	8709.027344
142.9481006	18051.50664
143.0105499	16498.95879
143.0217476	11185.97949
143.0485366	17556.12598
143.1066863	9269.28418
144.0057725	8603.764648
144.1011144	11238.08086
144.1019466	73105.46406
145.0261867	21057.16602
145.034619	20956.58262
145.0372626	11761.0293
145.0495832	9591.572754
146.0924352	22779.61953
146.1161729	12189.4125
146.1167516	31572.21016
146.1176013	186095.8281
146.1182264	14802.62158
146.1643659	9257.913086
146.1652006	39355.17813
147.0744868	12233.17715
147.0750127	95360.28281
147.0756273	357213.8313
147.076372	2448895.9
147.0769752	205089.2469
147.0779145	8620.462402
147.1128467	31116.82656
147.1209356	14243.40371
148.0019351	8441.352539
148.0024664	39739.41094
148.0030775	100104.2016
148.0038995	607515.3125
148.0045305	51273.46484
148.0590105	24306.27461
148.0596153	60578.62813
148.0604689	376066.8063
148.0611067	30900.77031
148.0734785	11008.04557
148.0789544	13349.03984
148.0798131	80524.3
148.0968298	9289.103516
149.0072804	11724.5293
149.0295328	16220.05078
149.0638165	18214.57637
149.0806574	9522.228841
149.9928199	9433.347005
149.9997277	21843.20391
150.0583441	15039.91089
150.9753075	8511.515869
150.9759622	20042.15742
150.9768403	130258.8422
150.9775186	9894.394206
151.0478282	18131.90547
152.0212463	14170.41055
152.0221067	81147.24453
152.6279856	8128.48584
156.0405284	16252.58906
156.0413034	58618.25234
156.0421005	462356.0313
156.0767484	30550.43633
156.9897551	20260.66563
157.0107337	12207.81191
157.0454819	23824.77578
158.0402513	32173.78711
158.9219919	16972.81133
159.0138494	19297.36602
159.0764314	10474.44561
160.1323221	13728.17988
160.133196	125797.1609
161.0294905	8477.623535
161.1275504	7741.161133
161.1284395	53074.49141
161.1365335	9082.821045
162.1092766	7239.527832
162.1099025	11706.75645
162.1106974	73915.34844
162.1116405	492965.5938
162.1123474	3722348.4
162.1130931	325002.8875
162.1142452	10617.39707
163.0451493	22013.29531
163.1094938	7556.064209
163.1140754	7321.556396
163.1148542	24207.53477
163.1158254	218060.6156
163.9760521	19211.8457
163.9768539	62284.13359
163.9777966	545687.5688
164.11672	17551.98223
164.1191872	8322.747559
164.5310199	10912.58561
164.9811806	11686.64199
165.0070084	7848.175537
165.0546027	7042.997559
165.9736283	25092.7668
165.9759368	42902.63516
166.0019223	9895.434896
166.0862606	37948.16289
166.9497973	9047.090723
166.9507327	93147.36563
167.0207468	10595.45352
167.0217312	117914.9953
167.0314902	13792.64277
167.0400487	14396.19316
167.0468823	8986.856445
167.1042573	14467.31016
168.0057568	54009.61094
168.0250631	6834.628906
168.0689289	7109.570801
168.9488733	12345.44492
169.019906	8537.013672
169.0261483	12262.85293
169.0573624	7272.862305
169.05837	71176.75
169.9858496	10099.02979
170.0307993	17209.97969
170.0316274	64357.57891
170.0326067	621485.7375
170.042364	10521.26416
170.0578009	10200.47695
170.0811806	11425.01807
170.0924161	38556.43906
171.036001	24283.1543
171.041801	9052.380371
171.0627708	7274.008789
171.0991511	8152.196777
172.0307597	41648.39063
172.1332211	12705.90928
172.9846931	56046.67656
173.0574691	9820.531641
173.0784205	9586.275391
173.0798396	8128.899902
173.0808476	80085.63438
174.8959549	40486.91641
175.0016915	19126.51094
175.1077358	11636.13398
175.1189703	60707.15
176.1029866	89372.42188
177.106334	7210.121094
179.1284951	9023.148112
182.0481673	7304.297852
184.0733158	12211.19082
184.0944201	9715.120117
185.0323272	11279.67041
185.959807	13867.71035
187.0731174	8842.183594
187.1259355	19885.2793
189.0159398	6909.570801
189.0524067	36260.00039
189.1346175	8286.865072
189.1597928	10954.42363
190.1074589	7339.425781
190.1186665	12752.56274
190.9119957	7333.402344
191.0316707	9009.354004
191.0401114	46450.39453
191.1043044	8560.419727
192.0146089	24797.96602
192.0554301	9642.998047
192.1091408	14910.99863
192.1343043	7633.356934
193.0020156	16668.74063
193.0194323	7374.65332
193.0376061	8253.967285
193.0625328	10227.7332
194.0327101	11207.59063
194.1151962	11975.77793
194.9456407	10426.34058
194.966628	16454.23223
195.0529702	7987.597168
195.0782321	13789.05605
196.0734614	11410.65723
196.8778904	8900.897949
196.9698371	9569.893555
197.0574832	9908.805566
197.0938506	8293.048828
198.084957	17336.23418
198.0972768	23154.13066
199.0366706	7371.026855
199.0731569	7479.92334
199.0843824	9783.091406
199.1095218	21857.98086
199.1692899	10098.07012
200.0658899	14934.98965
200.0670087	55516.57422
200.0683526	377377.5188
201.0159877	8434.235189
201.0524487	8768.389648
201.0539588	9503.536719
201.0717418	32194.07266
201.0887816	18597.78281
201.9323413	18754.61289
201.9337335	156025.8344
202.0476425	7339.528809
202.066536	28014.04531
202.180189	30848.60586
202.7720384	7520.01709
202.7727551	8015.200684
203.0316719	8608.601318
203.0386538	20954.06563
203.0400942	160923.3469
203.0500177	21568.95938
203.0512151	92504.22031
203.0525893	637360.0625
203.1376355	8228.541992
203.1390601	58115.40469
203.1502906	17300.99492
203.9294717	8006.045085
203.9318445	22742.27188
204.0408806	17129.35488
204.0421934	16132.95996
204.04335	10947.15156
204.0545389	7081.936523
204.0560069	40324.91797
204.1153877	7183.986816
204.1163927	8392.518652
204.1168528	7237.206543
204.1174047	7491.592651
204.1179042	10987.35625
204.1184209	10304.92188
204.1189205	17781.38438
204.1207483	226612.4375
204.1214876	470278.475
204.1228055	8089886.7
204.1239745	597810.5
204.1257597	19516.12109
204.1261976	13642.70586
204.1267509	11231.70645
204.1272441	8475.374316
204.1277344	8348.405957
204.1282457	7609.452474
204.129207	7242.263184
204.1338224	8683.634521
204.1345675	8179.430827
204.1422224	7495.677002
205.0376607	19886.65156
205.0542417	8083.681152
205.055743	55925.8
205.0625205	7333.546875
205.0682583	8208.030273
205.097208	23454.83516
205.1201479	19109.13945
205.1237599	20620.60547
205.1249979	92644.84531
205.1263759	574332.5875
205.129403	11713.64492
205.1547018	28140.71328
205.4910828	6906.589355
205.492293	7690.311768
206.0553232	30359.41367
206.0565184	9913.54248
206.1273193	45252.1
206.1298009	22185.76328
206.8858741	7416.053711
207.0127767	8876.95813
207.0142787	77243.77031
207.0532248	8178.480143
207.0782517	32570.27891
207.9885732	28570.67461
207.9983147	11791.40742
208.048396	9458.664844
209.0574331	9289.24834
209.0939001	12107.93574
209.1033309	21419.17773
209.1899863	7898.321289
209.5468674	13162.21387
210.0857855	7989.892578
210.0873496	99337.5875
210.0890836	30195.12305
210.1100693	11115.82275
210.9406116	28714.54648
210.9768587	7534.593262
210.9852939	39841.68516
211.0368038	8265.550537
211.0731462	16090.30078
211.0907597	9555.589063
211.9859784	8013.553223
212.1030086	25725.56602
213.0009805	9263.807617
213.0523726	9010.499023
213.0636643	10678.26152
213.0748902	7845.698079
213.1251551	18793.40605
214.0573993	9571.345215
214.0588745	124705.0719
214.2529349	22729.01758
215.0162286	7922.268066
215.0513215	12688.52988
215.0622717	7508.605469
215.0696281	23228.13008
215.1352975	11729.30654
215.1390382	12452.64785
216.0570732	9457.655273
217.0556477	7102.402344
217.083705	8360.256836
217.1046172	9876.106934
217.1547315	18069.78867
218.135873	28630.82031
218.1372331	100963.0516
218.1386001	1161733.9
218.1846908	8725.15332
218.1863465	116066.1203
219.0176913	30184.91797
219.0249087	10123.27373
219.0265969	141465.6375
219.1403958	7613.540853
219.1421021	99119.675
219.1897162	10647.6459
220.0041615	8951.130208
220.1428613	7307.900879
221.033362	7649.530111
221.0506983	13153.41523
222.0292772	49355.24297
222.9882367	56581.81172
223.9722315	7984.30306
224.9864533	7577.625488
226.1047432	12155.48896
226.2163241	7993.814551
227.1120194	6370.105957
227.1136278	41284.87109
228.116984	6222.482422
228.2319519	19918.3918
229.1515799	9755.748926
229.1527852	36406.85078
229.1544141	347590.8063
229.1560139	9397.017188
230.1577862	41096.46406
230.2476027	8632.942139
230.9898309	6529.490723
231.0347149	6327.476074
231.1336769	7220.377279
231.1449493	13219.00488
232.1511601	21835.38984
232.1523113	96833.15313
232.1540323	951270.4375
232.1556377	32560.45605
233.050305	7924.223145
233.0782515	6857.757161
233.1493498	8631.446289
233.1556641	11606.02168
233.1574275	107511.7875
234.1583406	7799.339648
234.160702	6899.749349
234.9378411	5950.787598
235.0659995	19672.42148
235.1649371	7927.437337
236.0404738	6909.118652
236.9922049	8744.563477
237.0278955	9039.573047
238.022759	52121.50156
238.0447979	9801.553516
239.0235456	5870.895508
239.161474	7998.191602
240.0201744	8825.788574
240.0383407	7315.11853
240.9956642	6298.769775
241.0679615	8750.1604
241.1273143	9434.932739
241.1292179	108285.1063
241.1543781	22964.79063
242.0769168	8814.440674
242.0786097	73932.48125
242.1150187	19124.56641
242.1325572	12302.51211
242.2475082	13058.46055
243.0111507	6766.766602
243.0819253	6476.993652
244.0925649	9778.945117
244.1539957	6379.059082
244.1904156	7867.228516
244.2632103	9468.897656
245.1354097	48164.78281
245.1459403	11462.12227
245.1473389	53810.45234
245.1492684	584921.525
245.2261496	17233.43945
245.9679134	9205.918555
245.9805317	6711.541016
246.1388279	6405.28833
246.1463485	5939.255859
246.1506877	7311.272949
246.1526556	62622.75938
246.1677007	9516.087109
246.169713	114251.4984
246.1809619	19684.02461
247.0295847	7667.180957
247.1730686	15782.73047
247.2397256	13826.6709
247.2417429	155468.9625
248.1469745	19872.48281
248.1489469	207495.3438
248.1981638	11514.22285
248.2431251	5978.683105
248.2450916	51295.25156
249.0452629	41113.97344
249.0955526	6750.146973
249.1532676	51988.95781
249.155407	542700.1
249.1573134	13478.79961
249.2484535	6550.823486
250.1523798	7220.697428
250.1587932	45158.90625
250.2138735	33101.2957
251.1363154	7055.063965
251.1597767	7920.048828
253.0945941	17093.69043
253.1196437	6830.306641
254.0002872	7775.134863
254.0187523	24394.54258
254.136005	10494.33418
254.2454344	9405.27041
254.2475338	116659.4781
255.0623578	6032.710449
255.1353704	18201.70703
255.2508866	18453.84844
256.094284	11072.19121
256.1305212	6474.67627
256.2610595	9665.233496
256.263174	121938.6016
257.0419103	26538.36875
257.0911093	25822.81406
257.1163159	8233.487305
257.1468963	6553.283691
257.2665376	18143.52109
258.0735679	8984.833984
258.109808	35624.67813
259.0772301	10190.1626
260.1831796	7808.626953
260.1853254	88154.66094
260.1966064	26522.15117
261.1886752	11684.88379
262.1282202	57585.32188
262.162394	6487.037842
262.1645865	51750.17422
262.9901678	7365.602051
263.0607933	6166.044922
263.1112472	7217.105469
263.1315567	7368.162109
263.1437059	13250.50176
263.1459167	127452.1
263.1678994	7656.519653
263.2366186	42798.33359
264.1492284	10237.0043
264.1720861	18579.93809
264.2294641	11925.36035
264.2399933	10530.1375
265.0227824	6731.16276
265.0694094	6587.219922
265.1042944	10507.20547
265.1113609	7377.531543
265.2482861	6778.532227
265.2500372	31827.61914
265.2522502	320169.1
266.1856388	7032.287598
266.1877486	56630.36719
266.2533801	7469.888916
266.2556335	87762.37813
267.1102187	18759.37188
267.1910153	7633.02002
267.2589774	8912.616113
268.0554763	6437.611572
268.1037209	11021.67617
268.2631964	23166.52852
269.0855001	6901.276367
269.087716	68188.84922
270.0910725	6763.861816
270.109885	18258.27969
270.2787963	39519.59922
271.1373337	17365.65195
271.2822705	7404.671875
273.0056924	8067.920532
273.0181975	7126.355469
274.2009793	7308.364355
274.2737513	19110.47383
276.1801843	23548.95703
276.2270752	11202.1252
276.2294035	118282.5516
277.1044544	6804.463379
277.2328087	17755.29746
278.2426743	7247.874023
278.2450754	81119.19375
278.2473848	10648.30664
279.2484297	11405.42617
280.0917118	31081.94219
280.2606412	7887.204102
280.2631213	55751.91953
281.0782211	8981.739258
281.2664493	7332.083008
282.274434	9010.646289
282.2762487	38443.43867
282.2787387	471275.3938
283.0185403	9904.544043
283.2821132	40401.80547
284.2944276	25780.85039
285.2979472	6687.438965
292.0730016	10982.54121
292.2008358	19322.05645
292.2033084	197828.7063
292.2607138	23372.19258
293.0686275	6283.594238
293.071335	67504.35703
293.2066916	26935.00195
293.2637602	7353.512858
294.0601199	10375.29707
294.0721192	8423.577148
294.0747083	6674.201986
294.2189687	7765.415527
295.2227121	10428.10864
296.063163	7893.863037
296.065967	90058.26719
296.2582752	8084.254883
297.0694324	9399.181641
298.0639755	9252.352539
298.9929021	50495.62891
299.305747	19794.33516
300.2298152	24764.66758
301.0169156	10262.52507
301.1410235	10993.11963
302.2424021	32539.92227
302.2454164	285917.2063
303.2487839	48653.97266
304.2117617	10694.64141
304.2607282	2525686.1
304.2634037	109186.5156
304.2671102	8067.904134
304.2841693	10398.12031
305.0008856	9933.035742
305.2615744	48921.83789
305.264395	392581.5563
305.2670653	19568.25781
306.2194018	40960.76563
306.2403786	9645.042773
306.2677937	33432.44844
306.2767623	27189.18672
307.0388531	24436.90283
307.0412784	78164.78906
307.0438443	572749.625
307.0831428	10697.07227
307.222779	9073.223047
308.0410579	8404.105632
308.0444177	8697.644043
308.0472704	60384.71172
308.0879249	10909.26074
308.0911093	102278.95
308.1987509	10641.43604
308.2350791	24861.75117
309.0420467	42848.41172
309.0943846	11278.92695
310.0470749	22517.80234
310.310345	8586.963867
310.9745093	9986.47832
313.321368	9503.664307
313.9473194	13942.01328
315.032498	9384.882813
315.0662579	9409.036621
315.1276496	7391.006348
316.0549997	7297.431152
316.1018384	11570.68691
316.20038	12021.0627
316.2037473	102988.0328
316.2227691	9751.115885
316.2481941	11018.41699
316.3178307	8570.797852
316.3209955	55648.96563
317.0292708	11787.38438
317.1150206	33505.3293
317.2070544	21009.10898
317.3242885	11961.17559
318.1183386	7351.344727
318.2022812	9091.628906
318.213653	35178.75586
318.2159174	122967.3125
318.2192178	1014895.55
318.2403528	31614.51328
318.2767607	9254.058398
319.2167065	8667.570068
319.2192134	17739.31367
319.2227558	169699.7844
320.0912039	9427.884766
320.2124555	7758.367188
320.2138258	11501.17363
320.2175674	70373.28438
320.2211988	9610.826172
320.2223026	16963.02109
320.2248686	30419.01914
320.2291868	183455.1906
320.2311901	405273.3
320.2345287	9165685.8
320.2375422	378136.4688
320.2416231	25475.97656
320.2426282	15114.00625
320.2440448	14123.175
320.2452404	11618.05566
320.2465402	10407.30059
320.2478092	8454.187988
320.2489406	9770.754688
320.2516004	7742.706299
320.252623	8738.801855
320.2556948	58773.92188
320.9651272	8122.960449
320.9747664	86949.35781
321.1310556	7766.558105
321.2020874	17782.06094
321.2211222	11761.92285
321.2284143	8157.570313
321.2321486	56658.34688
321.2347733	134311.8109
321.2381744	1394088.55
321.2592481	9785.770801
321.8926397	14368.91738
322.0549891	9162.853516
322.2271246	15737.89531
322.2295109	39932.55469
322.2331156	462679.075
322.2379392	16688.96406
322.2417395	102596.7906
322.2506869	81305.95938
323.2364842	77007.35
323.2540658	13115.79922
324.2401205	7375.86792
325.177514	12471.44473
326.9484492	11286.76055
327.0082766	7592.896973
327.3369631	10821.4541
328.0547254	23719.14063
328.0672672	28330.45938
329.025897	12545.81504
329.9214088	7806.627686
330.0730257	28790.63281
331.0401687	23293.20039
332.0288567	18513.05898
332.19864	11864.79297
332.2432172	8579.932617
332.2924035	12954.45898
332.315852	9538.392773
332.9561436	10667.8418
333.0031676	8734.983643
334.2104287	7310.777344
334.2142976	86224.57031
334.2506687	20246.68672
334.2716164	13823.11641
335.2176551	17674.28945
336.2260018	8798.192871
336.2299404	115233.9406
336.2509997	11075.35313
336.9487671	73540.46406
337.2332405	20895.22109
337.8664139	8660.978516
338.2280722	9391.532227
338.341871	13616.19766
338.9469516	10781.57539
338.985251	12358.37051
340.188521	16904.74609
342.3115185	10871.3457
344.999891	9663.88265
346.0470338	31666.73867
346.2508842	9509.346191
348.070416	38939.54766
348.2663579	20665.58633
350.2092694	8226.750854
350.254076	35798.41289
351.2572176	9523.670573
352.2249033	18850.91699
357.2497377	8951.217773
360.3235184	9881.447754
365.1569195	9073.163672
366.0229491	5649.388281
366.2038168	30753.18789
366.2313352	9308.505176
366.9607563	8359.627637
367.2071945	6864.258398
368.028727	6203.235352
368.2123971	7614.622559
368.2151494	11103.26025
368.2193155	274403.1656
369.2228552	55639.75313
369.3108922	17973.36836
369.984498	9640.843945
370.0520934	37672.69219
370.2176292	21605.70156
370.2263249	5017.179932
370.2479857	12160.01719
370.31422	5847.463379
370.3788028	6251.643229
371.0552928	5368.313232
371.2209279	4926.367676
371.3194453	5408.626953
371.3224351	8916.612467
371.3264535	167417.7906
372.2063352	15341.76387
372.2452429	5412.331299
372.3105484	5078.461589
372.3299173	35059.40625
373.0378086	14616.24531
373.2442607	15137.14863
373.3333087	5270.888672
374.1917258	5141.797607
374.2032792	5823.616309
374.9042714	5306.607031
375.0533408	5078.051758
376.2972843	85250.43281
377.3006015	20705.43594
378.2953288	4830.71167
378.3129152	5776.658569
379.1302581	10635.03711
379.1991038	6518.972266
381.0887548	8243.768555
381.9967235	9015.596387
382.1985981	4827.663086
382.2351676	5318.640137
382.274632	5135.880859
383.103063	9061.594824
383.1156823	27666.05469
384.0025394	9374.88418
384.118989	4549.297363
384.2143494	4667.727539
385.1186497	5678.275684
385.3169569	42042.1125
385.3421024	6544.940918
385.9584138	5810.229248
386.0175414	4535.466309
386.0258378	109716.6344
386.221868	64142.08984
386.2898241	4750.33252
386.3203367	8885.746191
386.3262249	4726.299316
387.0291918	11989.47012
387.1798937	15369.57734
387.2252279	12229.67617
387.3211864	5919.730957
387.3326042	33301.225
387.3578129	4645.881836
388.0240922	6812.272754
388.2188699	18488.7625
388.2219632	10076.66895
388.3053815	6185.425195
388.3360104	7679.331445
389.1792748	6781.326172
390.9776649	5681.278564
391.2839278	6051.897852
391.3427897	7882.062598
392.0340542	5225.630371
392.1058203	5490.661377
392.2642013	9348.151563
393.0829171	6178.86543
393.3083652	17434.96836
393.3219517	15295.21738
393.358413	46943.97422
394.102367	6074.263794
394.279786	63268.81953
394.3618	10306.52051
395.1251924	14856.54258
395.280201	5850.236426
395.2834682	12614.2166
395.3239567	8601.850586
395.3326381	6105.965039
395.3376155	111946.6953
396.1285753	4526.428223
396.2507242	9919.470117
396.2774532	8433.366504
396.3079954	35529.97813
396.3409498	24986.06641
397.2794638	5897.580811
397.3114258	7925.564355
397.3418821	13590.90215
398.0202923	5655.865918
398.032723	7991.881055
399.0896109	9039.683203
399.1441878	13351.21172
399.3325187	13450.16934
399.3577589	27054.31289
400.1571455	46297.44141
400.3165946	12097.07246
400.3417103	5651.505859
400.3610394	6270.085059
401.1604834	6359.307422
401.2440994	5100.4375
401.3369345	5155.051514
401.3482607	6483.987891
402.2248739	9528.306641
402.3322589	5807.266357
402.3573077	7032.55127
403.0833157	5378.791016
404.1959899	9568.962695
404.2063666	15266.80918
404.326536	10494.47578
405.1062223	6087.760352
405.9842394	4653.617676
407.2934559	15533.74688
408.0078858	16537.94668
408.0205275	11850.67363
408.0333573	5567.963013
408.0792213	5321.349447
408.3081051	31366.13359
408.9511261	9077.302734
409.0568033	14231.1332
409.1564457	5148.383545
409.1618243	79922.88438
409.1830802	17857.42969
409.3114674	5632.232715
409.3171873	9641.14043
410.0563304	5027.97168
410.1651854	17996.50117
410.2574117	13386.79414
410.9936376	5816.851758
411.3326123	50371.97969
411.3578098	5200.873291
412.3359785	8755.44043
413.2657757	6820.187744
413.3427035	6723.014648
413.3482642	79045.01719
413.3734034	40100.28984
414.0068523	8962.54082
414.351607	8922.979492
414.3767331	9558.391113
415.1568868	28706.79961
416.0716546	4796.01416
416.0842783	19759.56152
416.1407662	4892.398315
416.1597283	5224.655273
416.2743807	14622.28906
417.319678	14348.46816
418.3172878	4740.596924
419.0572005	10113.8875
419.087157	5622.452051
419.3112711	6326.294238
419.3239075	7646.210693
421.3395982	7919.499023
422.1390894	7337.038672
423.9817362	16125.89082
424.0071472	5405.826782
424.2763951	5338.288818
424.2818818	98453.77031
425.1235957	15123.20059
425.1256342	16077.875
425.1352719	1151272.4
425.2853213	19787.44648
426.1292686	4973.080566
426.1388527	248597.6344
426.2801408	5882.588501
427.0023387	5726.228613
427.1338294	66450.68047
427.1382612	8930.131836
427.1429059	21344.38984
428.137091	16529.76719
428.3731599	5270.506836
429.2397021	13904.60645
429.2627566	12462.02754
430.0152319	5024.016846
430.242909	4582.864746
430.3888284	5027.279541
435.0611447	8291.59248
435.330013	27818.36758
435.988595	6544.942871
436.3332821	5913.975293
437.1384674	11314.22773
437.3134657	4762.410807
437.3338527	4365.698242
437.3480465	4273.987305
438.0661316	6045.056934
438.112956	9832.69082
438.269341	5014.25
438.2817872	4504.941895
440.1932654	11610.91621
440.2851406	11407.85352
440.2988419	4032.45752
440.9331597	4738.827962
441.3794212	4500.669434
441.9340948	4475.313477
442.0434527	4875.343262
442.3003643	4087.820557
442.9761924	8236.489258
443.0621092	5305.833008
443.2334661	17070.20332
443.3222745	6778.323438
444.2370404	4402.196289
444.3426268	5841.776042
445.061492	10465.3418
445.1195116	5134.693237
445.2426235	8271.046191
445.2490187	127674.7953
445.3378078	5499.671387
445.9756782	4579.236979
445.9813026	4885.96521
445.9889463	46368.67734
446.2066418	4157.943848
446.2525189	25684.84258
446.9067787	5671.709863
446.9923885	4266.375
447.2480077	6636.616309
447.3577503	9490.693555
448.2221091	11745.83262
448.3141709	4921.371582
448.3756129	5787.736621
448.9618971	11141.83105
449.2884647	4827.702515
450.0055172	10090.91992
450.3173099	6397.282422
450.3297576	29728.07305
451.0694749	4567.974447
451.2572426	8981.121289
451.3045014	6877.781641
451.3137119	6657.340039
451.3330771	6145.945703
451.9626198	5403.166016
451.9873488	4990.780273
452.0438482	9066.642285
452.3130788	4568.29248
452.370527	4500.048462
453.0688234	13148.09492
453.0815161	8333.883496
453.1125774	17463.29766
453.1305273	5442.01416
453.2091468	21354.51719
453.3081966	4243.574219
454.0400435	28070.43711
454.2124495	4384.70459
454.9958633	4590.063354
455.0432518	4287.810059
455.0743204	4748.858643
455.0871313	4947.129883
456.0416673	5232.418091
456.1157276	4669.942871
456.1672872	5649.013281
456.2730662	6738.718359
456.2927176	6467.613672
456.9070935	12798.45156
457.0129517	7422.167871
457.030849	3991.766846
457.0429331	11639.23379
457.270853	4699.198242
457.3743185	7518.565137
457.9705448	4199.299316
458.0174246	5262.620898
458.3084738	7423.001953
459.2797017	4477.07666
459.3171407	12196.87754
460.0706428	7719.305566
460.0948066	6979.385254
460.9431905	4329.773438
461.3327898	62157.31328
461.9628124	49082.52266
462.3362509	12490.24746
462.9663253	4851.071859
463.0692022	12744.9207
463.3528223	5709.629639
463.9616393	4798.5448
463.9869811	4798.000854
463.9995374	4400.516846
464.9355977	4464.327962
465.2154683	4298.641113
465.3656703	20108.2418
465.991756	4768.232422
466.3036038	8759.170508
466.3690878	5608.657959
467.0434802	11275.3875
467.1014075	8695.716113
467.2310465	20265.90586
467.2876107	4459.847168
467.9613651	4449.439209
467.9709763	12586.20664
468.0177914	8139.902441
468.0276014	4778.956055
468.2345501	4886.797363
468.8887125	4778.15625
469.0552237	10792.31523
469.3242075	11173.44883
469.410689	10954.56621
470.0137566	15180.12773
470.9695478	4904.554443
471.0610719	8993.429688
471.1328085	24617.65469
472.1363123	4214.107056
472.3117185	5266.486328
472.881006	7169.944629
473.017022	7564.477344
473.0845413	4814.061686
473.134776	7106.567578
473.9443558	4852.093848
474.1229828	4407.719727
475.0944001	5607.905273
475.280072	5072.765462
475.3734367	4833.848633
476.0691027	4716.027197
476.2274078	26699.25234
476.3324869	14527.65664
477.1158766	5013.071289
477.2306129	7033.096582
479.1390836	4785.563721
479.3352893	7174.438477
480.2327244	4340.362793
481.9976802	5003.625977
483.0173808	10728.46309
483.075302	23906.84375
483.3147227	4628.007487
483.9447517	23724.09688
484.0017695	4654.395508
484.0745484	5739.631445
484.3113903	22103.48438
484.3238275	63652.22109
485.0635978	5657.35022
485.0723284	5078.11735
485.3151186	4979.319141
485.3272794	13387.20664
486.3269029	8902.646387
487.9739872	4035.304199
489.0251314	5584.971924
491.9959192	5151.79541
492.2564584	5324.286816
493.0430338	6167.260156
493.2038925	4962.121826
495.0535871	4710.424805
495.0661644	8714.106836
497.2353097	13911.37695
499.9186277	9673.550977
500.2384078	20626.53359
501.2419569	4465.73877
505.2622699	4216.866821
511.0412235	7820.788574
515.4131743	43381.07188
516.4165911	12244.41348
517.0124855	6860.540918
517.3963584	13562.96934
518.2339076	3905.704956
518.2350574	3767.108154
518.2412683	5811.875977
518.2499809	95944.5375
518.2752839	4577.627767
518.3995727	3823.738037
519.25337	26599.02383
519.2951684	8911.738086
520.2578239	3565.826172
522.2679979	4015.069824
523.3505707	4104.033691
525.3377292	4967.336914
525.3877057	4103.472656
526.2400147	4375.634766
526.2414486	4734.322449
527.18336	16437.56016
527.2398038	4199.767639
528.1865608	5948.119629
529.4707381	5911.794043
530.3170546	4425.035075
530.3181217	4958.087524
531.0003966	3988.084717
531.40818	4917.216162
531.4864303	15083.14727
532.0953272	3913.13265
532.290697	4723.780029
532.3958088	4079.266439
532.4397698	21395.21758
532.4898397	4894.478027
533.0233739	6574.113281
533.0353977	4085.652832
533.2496957	15030.33145
533.443207	6676.335449
534.2337016	3777.97168
534.252929	4662.856527
534.2540507	4193.499023
535.5200213	21938.31836
536.5235227	6829.929395
537.1693085	5231.999939
537.230797	3961.041809
537.3784128	18674.39414
537.3857524	30914.94434
537.3943509	545074.5188
537.5357654	17170.08867
538.3813892	6855.929395
538.3888044	7525.421094
538.3982943	153965.5719
538.538938	7053.649414
539.3531418	4202.693115
539.3908677	19313.65859
539.4018102	21433.96289
540.0384564	4089.390747
540.2319576	4108.754964
540.3942976	6598.045801
541.0996256	4264.503906
541.1208589	4296.84554
541.262509	7422.986035
542.2155718	9650.548145
543.178425	7640.136328
543.2187296	4591.024902
545.4140661	3645.715332
545.4238299	51311.89531
545.4447753	5762.297559
545.5018782	7276.34502
546.3063512	12599.40918
546.4272317	16899.80195
546.4482639	3794.633545
547.30877	3929.909342
547.4305449	3909.094076
547.4601321	14339.42559
548.2680775	7165.760547
548.2756216	13235.47144
548.2855006	172202.1781
548.3446753	4497.598755
548.4637464	4594.376831
548.9970782	5921.45127
549.2799017	4610.272461
549.2891391	57098.51563
549.3755722	3650.682617
549.4755781	4242.307129
549.535628	6653.069238
550.1161885	4094.85376
550.1504098	4140.90332
550.2919818	7832.348755
550.2930987	6611.007324
550.3602591	36826.25547
551.0875222	4308.191406
551.0998966	4056.99292
551.363527	11083.1793
551.5513024	4096.471924
553.3096413	3591.357422
553.3283638	3827.534912
553.3317891	3918.328223
553.3356449	4183.158789
553.3492056	59448.91504
553.3675004	3434353
553.3763832	101875.8344
553.386643	19491.08398
553.3891239	20480.95703
553.3904815	19832.88672
553.3992893	3911.855957
553.4004	3608.720703
554.0785736	4089.164307
554.2790409	7208.415137
554.2910487	6422.450098
554.3551066	23458.08984
554.3714325	1056697.325
554.3802363	29767.90299
554.3908804	5436.342041
554.3939699	6937.790527
554.3953507	6148.585205
555.0308779	3960.241821
555.3474292	7111.65293
555.3552787	12061.6707
555.3664404	256340.8313
555.3743794	138431.5531
555.4860267	5228.995117
556.2059332	6981.219629
556.3579895	4288.40625
556.3701469	64508.61328
557.0735242	11652.93145
557.0950594	17478.37559
557.2511726	4040.925049
557.3636633	8652.931836
557.3723282	8877.268921
557.3742476	8441.367188
557.4832804	3773.66333
557.5019551	88162.56875
558.093786	5361.576123
558.5052823	27339.00859
559.092287	5356.744141
559.15116	17466.12324
559.5173549	42371.91563
560.1541858	4087.473226
560.5209487	13569.1998
561.1527989	4080.096069
561.5357809	41184.02266
562.5390801	12432.92109
563.5328382	7086.173926
563.5510327	211936.2531
564.2787094	6000.318066
564.5547573	69098.33125
565.5581196	10801.49668
565.5649243	6063.838379
565.5671077	6063.192383
569.344727	3895.275228
569.3639495	99615.07031
570.3674897	29300.25195
571.361563	5439.62207
571.3694581	4348.163574
571.3710851	4114.341715
581.2569374	4170.451904
