mz	intensity
74.02195785	9988.782227
74.02212804	10359.18555
90.05490883	19276.03125
90.47318713	8056.79834
97.004995	14404.21074
98.99514598	10067.90625
98.99550386	63589.85703
101.0031467	11301.85645
101.0596931	14486.58984
101.3293158	7727.233887
101.3388942	8103.17334
101.515122	10671.01953
101.7336383	10542.58105
101.7343811	9424.458008
101.7345972	8683.241211
101.7362642	8882.991211
101.7371178	9319.452148
101.740126	8156.038574
101.7409799	8161.183105
101.7412817	9889.790039
101.7417847	10418.67725
101.7420955	10254.17676
101.7425481	8892.936768
101.7428141	8173.050781
101.7433342	10194.7384
101.7436767	11162.28369
101.743998	10407.03223
101.7442742	10007.11914
101.7445279	7888.840332
101.7447816	13938.46484
101.7455522	8463.502441
101.7462876	9217.868652
101.7467509	10853.35742
101.7469606	14323.89063
101.7477353	10596.5697
101.7481827	14167.5415
101.7486733	9839.774414
101.749101	8131.332031
101.7493445	13380.95215
101.7496015	10351.59766
101.7498386	12483.67969
101.7502778	11081.00391
101.7506772	10477.74154
101.7509408	13191.53418
101.7514517	10452.17936
101.751783	12746.84839
101.7520075	15133.30762
101.7522144	12404.22201
101.752552	16746.33398
101.7529192	12687.99746
101.7532747	20021.17188
101.7535738	11115.01348
101.7538883	10006.13477
101.7542218	14168.69954
101.7545407	13907.73828
101.7549261	13137.63281
101.755286	13682.73574
101.7559964	12134.98682
101.756206	12284.98926
101.7564263	21631.62109
101.7566667	10501.9598
101.7570343	10678.44727
101.7572919	16957.54102
101.7575021	9828.527344
101.7578713	14482.26953
101.7583488	12873.64583
101.7587772	13342.56673
101.7590242	11765.375
101.7592447	12667.39961
101.7596401	10871.91781
101.7599811	10683.68701
101.7603567	13853.32168
101.760897	13618.39616
101.7612952	12813.03545
101.7615729	15047.33105
101.7618308	14111.87275
101.7621841	18834.75049
101.7625264	14372.9519
101.7627488	11386.1543
101.7629842	15180.30762
101.7632594	15141.03027
101.7635941	14696.98596
101.7639069	15369.20085
101.7641977	18047.03638
101.7646323	17201.52181
101.7649602	18392.11113
101.7653276	9503.497396
101.7655811	14839.4043
101.7658572	11085.39421
101.766162	17809.81901
101.7665243	13205.41699
101.7668746	15264.93783
101.7672797	14483.66426
101.7676608	15550.89551
101.7679348	15470.33138
101.7682433	15744.66992
101.7685458	16012.94889
101.7689299	13146.49536
101.7691936	10773.01563
101.7694126	12506.95654
101.769646	12392.14004
101.7700686	16130.57148
101.7704661	12352.76895
101.7707804	14964.96533
101.7710975	18898.40503
101.7714412	17567.03288
101.7716459	15460.77832
101.7718704	20799.48242
101.7722507	28546.81055
101.7725348	21303.9266
101.7729312	16199.45996
101.7732146	24476.81895
101.7735426	24926.37305
101.7738166	17644.17253
101.7741329	22835.93823
101.7744531	17507.06641
101.7749224	22744.87773
101.7752643	21215.26758
101.7755501	21493.54541
101.7757682	21123.33789
101.7760578	17911.58618
101.7764826	21062.21582
101.7767842	21648.59668
101.7770128	19128.05762
101.7772825	19904.60137
101.7776377	22578.16895
101.7779257	29119.25716
101.778216	27045.78271
101.7785767	19607.99414
101.7788154	21992.78418
101.7790466	22351.24365
101.7792993	27842.50049
101.7796188	22214.39282
101.7799208	17021.76973
101.7801503	18806.59115
101.780598	23886.69883
101.7810533	18869.34238
101.7813054	17399.0918
101.7815591	30768.06738
101.7818281	31090.94499
101.7820623	19510.14331
101.7823033	16466.93913
101.7825435	23456.51602
101.7828907	26689.26426
101.7832577	36358.81689
101.7836053	19533.63159
101.7839447	18155.09635
101.7842815	22633.5666
101.7846287	25372.02319
101.7849863	14167.69263
101.7854266	16343.44277
101.7856994	13293.73047
101.7859627	16211.58984
101.7862143	20901.27441
101.7864605	15940.4314
101.786687	19459.72982
101.7869326	18314.63151
101.7872025	16841.63008
101.7874196	12037.20898
101.7876922	18434.12715
101.7880406	15056.50903
101.7882471	14873.17285
101.7885904	12715.75537
101.7889923	13951.63711
101.7893237	17450.12637
101.7896907	13347.77311
101.7900472	15689.34049
101.790393	14255.10278
101.7906499	13530.77637
101.7909851	15692.85449
101.7912193	22688.79004
101.7914498	13819.20093
101.7917195	12425.92041
101.7920084	12910.74023
101.7923421	11023.1665
101.7926302	23013.55859
101.7929599	14440.30632
101.7931979	14991.54248
101.7935037	12113.77344
101.7938964	15177.64453
101.7943078	12000.24967
101.7945614	9562.264648
101.7947907	8252.027344
101.7950301	10653.6084
101.7952564	11230.53564
101.7956668	12065.94189
101.796148	10511.46729
101.796481	13978.35352
101.7967016	10076.82715
101.7969922	8610.529297
101.7972983	13543.56396
101.7976023	7813.279297
101.7979582	9880.920898
101.7984341	10051.49805
101.7996086	16728.64063
101.7998886	10661.78027
101.8004202	9177.981445
101.8008547	12151.07568
101.8012839	8990.557617
101.8017562	11048.7334
101.8025859	9866.257813
101.8031916	8185.336426
101.8097169	8785.058594
101.8168499	8045.62207
102.0913159	11997.64707
103.0389555	35377.69609
104.0705919	8655.53418
104.106976	25027.54453
105.0032592	11729.55957
105.4865563	8557.955078
106.9505701	27134.78867
110.0712673	12330.21465
112.0159301	8919.635742
112.036888	11144.10339
112.0518806	9425.613281
112.0523072	73117.4
112.0869185	15759.58125
113.0209143	19733.85684
114.0656169	8295.674805
114.0661929	42739.06563
115.0365707	29093.92578
116.070604	13765.3252
116.9770902	14948.01152
118.085346	11322.88398
118.085728	13845.11172
118.0862607	198273.4969
118.0866771	18166.09448
119.0189331	14795.26367
119.0896285	9048.927856
120.9808482	8181.350586
121.0683897	13101.72729
122.9245234	10598.67578
123.0138502	25778.91406
123.0553017	15134.4959
126.0219528	21302.20195
127.0365631	9419.879883
128.0108547	25392.52305
128.9859225	10015.42676
128.9942096	8469.119141
128.9948722	24866.03555
129.0658614	11646.22617
130.0487369	9788.224243
130.0492148	34476.54648
130.0498762	132946.7188
130.0503876	11666.08203
130.0862566	11873.73516
131.0093186	8158.020996
131.0098386	24090.23633
131.01051	85499.52188
131.0110658	8297.123047
131.0182637	11661.05234
131.0189348	38096.64297
131.0532221	12089.78887
131.3479191	8031.728027
131.348295	8657.945964
131.3488136	8381.563721
131.3528458	12514.95508
131.3533743	11952.91797
131.7110599	8553.314209
131.7115272	11050.76045
131.7118616	9562.246257
131.7137033	11366.06426
132.0197642	10297.43262
132.0541247	8205.205078
132.0654739	8910.629557
132.0685248	9035.970703
132.0690368	9103.014648
132.0704121	8258.258789
132.0707839	9230.150391
132.0710604	8462.155599
132.0714011	9327.232715
132.0717778	9257.908984
132.0722014	10199.46387
132.0725464	12200.29219
132.0729304	12183.20313
132.0732048	13263.94678
132.0737477	15554.02539
132.0741997	17346.67852
132.0745942	37327.92656
132.0750188	90808.00625
132.0755831	496747.7688
132.0761216	2273168.7
132.0766707	22232580
132.0771974	2589377.2
132.0781354	41135.27402
132.0785833	28030.84648
132.0790065	23700.17324
132.079433	19200.31797
132.0798545	16917.30879
132.0802766	14253.28125
132.0806996	13251.59375
132.0811269	11017.23584
132.0815459	10771.62949
132.0819507	9470.603027
132.0823907	9377.818262
132.0828166	8721.033447
132.0835574	7970.85791
132.0839742	8776.427734
132.0845113	8528.105469
132.1007746	16212.14316
132.1012346	55416.16484
132.1019133	214710.4781
132.1024908	20176.32539
132.4414924	11598.26797
132.4424472	8431.668701
132.4431394	8138.669189
132.4438888	11547.1543
132.4441624	9883.180339
132.8077001	10029.98486
132.8081658	11776.44092
132.8131703	9983.292969
132.8137533	7912.78125
132.9720004	12567.96816
133.0086386	11765.63633
133.0164997	9129.422201
133.0317662	9583.567627
133.0345845	22330.86367
133.0607725	8984.463867
133.0725988	9886.630664
133.0731128	32515.34102
133.0738064	129896.8031
133.0743269	12889.85645
133.0785087	10955.06504
133.0789286	42764.60313
133.0794614	146540.0188
133.0801115	629142.775
133.0806322	61119.39922
133.0810986	10073.16406
133.0830763	16304.63164
133.0860083	8217.790039
133.0972167	10662.18099
133.1052865	18100.325
134.0448264	8385.066895
134.077156	8769.295898
134.0803163	11831.05449
134.0809981	64002.01563
134.0834889	11748.10527
134.996476	19370.44043
135.001632	8808.353027
135.0021413	21210.0875
135.0028544	124920.9484
135.0034175	9971.538281
135.0321162	8712.952148
135.0803665	7971.962402
135.1015702	8154.326416
135.5282799	10308.80908
136.0464549	8764.650391
136.0469063	48598.60469
136.0474448	128799.1203
136.0481141	888652.225
136.0486911	80407.76094
136.0610745	9764.769531
136.0617861	51291.32422
136.0732245	14399.47803
136.9393354	13097.51699
136.940059	85327.66875
137.0065526	8770.145508
137.0111499	10105.81006
137.0294692	16341.75371
137.0450406	8794.15918
137.0457936	63776.70938
137.0515031	25405.35234
137.0573059	26468.13789
138.0315751	8865.599447
138.0522962	9021.217773
138.0525757	13420.56367
138.0913561	9146.666992
138.9641641	16700.63867
139.0148472	12859.90259
139.0156151	65119.59375
139.036595	17278.56328
139.0729512	8416.555827
139.11178	9786.661621
140.0376312	8074.814453
140.0664054	9066.146484
140.0669126	60260.55938
140.0674849	171604.9969
140.0681678	1138266
140.068745	99927.78438
140.9949138	15833.01582
141.015077	13421.29785
141.0158651	73617.11016
141.0522425	10161.16064
141.0707933	9922.757813
141.0715927	42947.34219
141.0886635	11115.06641
142.0264077	8908.484863
142.0474843	9362.448242
142.947277	8543.219482
142.9481031	47256.48125
143.0105337	11063.111
143.0217372	8815.490234
143.0485255	8660.771484
143.1066957	10584.13574
143.9872471	8277.021484
143.988105	36636.05195
144.0323412	13092.01211
144.1011436	11823.78242
144.1019578	65046.2375
145.0262077	15829.90938
145.034627	14463.22363
145.0372704	18352.08145
145.9672893	7892.39502
145.9851529	14463.97852
146.0915764	7781.761719
146.0924574	26207.10234
146.1161581	13451.66211
146.1167537	33632.06016
146.1176043	187105.75
146.1182361	13843.4812
146.1652318	27639.18867
147.0744987	11241.85488
147.075011	83273.22344
147.0756342	288186.1344
147.0763869	1841747.7
147.0769785	154578.5563
147.1128667	22752.33516
147.1209413	10976.19023
148.0024613	57787.26016
148.003085	158089.2344
148.0038846	984691.4375
148.0045368	84456.64219
148.0427377	11624.31973
148.0590009	19994.11504
148.059623	51525.69375
148.0604758	316009.6938
148.0611194	27032.67188
148.0735147	8231.679199
148.078954	10260.51343
148.0798278	61812.71563
148.0968966	8669.483398
149.0033305	7578.354004
149.0072866	14935.55449
149.0295642	11348.90088
149.0638693	10301.84253
149.992849	9934.863281
149.9997406	36937.71836
150.0583777	9727.384766
150.9753145	8253.520752
150.9759525	20280.25645
150.9768527	132915.2328
150.9775624	8950.505078
151.047849	25476.19609
152.0212288	9753.178345
152.022111	57701.30938
156.0405475	10764.28223
156.0412995	39751.35156
156.0421075	310476.45
156.076745	29991.92461
156.9897572	17428.06426
157.0107251	19035.74902
157.0455057	15950.83223
158.0402542	20715.86641
158.9219978	20312.61699
159.0138329	19693.08555
159.0763892	9262.04895
160.132293	13175.53379
160.1331977	115886.5859
161.0112425	7318.572754
161.1284356	46165.6875
161.136543	9377.356348
162.1092753	6786.850098
162.1099027	11522.24395
162.1106759	68481.10703
162.1115609	417336.125
162.1123447	3443377.7
162.1130913	302089.4938
162.1142201	9285.386377
163.0451482	22006.22695
163.1095474	9151.061621
163.114073	6590.025879
163.1148444	21413.4582
163.1158271	195165.2656
163.9760524	15278.70156
163.9768531	50244.82031
163.9777999	453144.0938
164.1167217	15499.98789
164.1191859	7208.681315
164.5310243	13673.09668
164.9811593	8199.294727
165.0070941	7283.150391
165.088616	7190.839844
165.9736172	18965.07969
165.9759423	35184.94688
166.0018559	8491.447266
166.0862565	39055.20938
166.9497926	6695.654785
166.9507371	60516.42734
167.0207904	8284.055176
167.0217332	87354.20156
167.0314768	15766.4709
167.0400609	11717.28931
167.0468886	8554.274089
167.1042587	20405.81113
168.0057654	41766.00391
168.9488626	8035.320557
169.0261571	10145.63564
169.0573751	8534.062988
169.0583755	100125.0781
169.9858369	23566.05273
170.0308015	13194.13418
170.0316339	48029.28516
170.0326109	473039.825
170.0423792	16277.01211
170.0578094	7691.14375
170.0811811	9989.441406
170.0924061	33090.61016
171.0360186	16305.96895
171.0417989	8663.347168
171.0627905	8415.25179
171.0992021	10790.48789
172.0307529	31987.60156
172.1332254	11308.33682
172.984701	48127.25781
172.9878422	9833.891602
173.0574553	9793.955859
173.0784343	13557.08574
173.0808486	68645.35313
174.8959525	27366.45625
174.9913998	8370.556641
175.0016935	17602.13984
175.1077764	8896.349609
175.118968	54005.61094
176.1019524	6568.41748
176.1029901	76603.79844
177.1063356	7076.171875
178.9717192	6826.163086
179.128451	10704.2291
182.0481302	7254.535767
184.0733249	10908.28223
184.0944437	12621.08984
184.5597589	7132.764648
185.0323591	9199.755078
185.959794	21527.9418
187.0731224	8235.388965
187.1259482	20484.57383
189.0009669	6776.500488
189.052391	24820.81758
189.1233666	8205.427734
189.1345823	8639.737793
189.1597745	9678.413086
190.1073946	7396.993164
190.1186444	10503.07715
190.9119564	7771.983236
191.040144	56621.23906
191.1042719	14475.74102
192.0146156	31512.55742
192.0408498	8724.416016
192.1091395	15137.06855
193.0019441	15721.42246
193.0376943	7170.960938
193.0625224	9955.404053
194.0326732	10709.62907
194.1151745	16697.55762
194.9456941	7821.549479
194.9666595	20413.30625
195.0417515	6896.425781
195.0781999	11172.39395
195.0894874	8244.804688
195.099181	7510.989746
196.0734759	7501.817383
196.8778853	8672.369019
196.9697472	6729.421387
197.0574885	8499.341675
197.0938488	8756.868164
197.1512143	8861.155436
198.0526441	6693.631836
198.0849516	23501.16055
198.0972453	19575.95195
199.072983	6615.48877
199.0843584	7063.374268
199.1095355	16422.11055
199.1692999	12852.40918
200.0516707	6958.048828
200.0658328	9366.091553
200.0670067	35104.95313
200.0683581	241526.0688
201.0159938	7951.410807
201.0540175	7131.479167
201.071752	18342.83281
201.0887765	16682.85996
201.9323845	14397.96973
201.9337301	109386.7891
202.0665184	18820.07949
202.1802117	28204.36875
202.771261	6693.114258
203.0317088	8223.572754
203.0386131	16442.46914
203.040102	138641.85
203.05006	30460.14961
203.0512392	132354.3906
203.0525437	974044.15
203.1376504	7679.890299
203.1390542	55722.73203
203.1502715	17199.81172
203.929449	6574.408691
203.9318607	14988.9998
204.0408797	17458.59863
204.0421211	13474.11387
204.0433609	10081.84497
204.0545094	7187.751709
204.0560001	61763.61016
204.1153793	7462.458252
204.1163879	7460.330322
204.1173982	7474.235514
204.1179082	9843.060938
204.1184482	8971.877767
204.1189278	16187.09546
204.120736	186387.0391
204.1214742	458772.2313
204.1228094	7541409
204.1239655	555870.375
204.1257637	16360.62188
204.1262048	13450.73301
204.1267435	10104.96777
204.1272589	8688.006152
204.1277741	7546.387988
204.1282024	7601.328491
204.1338199	8192.011475
204.134578	6933.833822
204.1421927	7776.16748
204.8054718	6785.452637
205.0376521	18975.07949
205.0544072	6910.962646
205.0557529	49518.69766
205.0625567	8104.799561
205.0682911	9687.540625
205.0971847	19767.46992
205.1201506	19991.37852
205.1237545	18532.06602
205.1249863	82497.89688
205.1263687	544933.4375
205.1294065	10395.39316
205.1547226	25409.3375
206.0538473	8441.036133
206.0553199	47530.48125
206.0565946	7143.196777
206.1258257	9307.462891
206.1273115	39059.32813
206.1297759	20681.71367
207.0127965	10331.55215
207.0142884	91873.10781
207.0533687	7292.554199
207.0782429	30004.52734
207.9885395	17260.16875
207.9982785	18017.06387
208.0361737	6574.167969
208.0483797	8023.04541
209.0123723	7846.23938
209.0575105	8921.111719
209.093902	9279.467676
209.1033743	19087.58203
209.1149074	6979.955078
209.1900929	7420.449707
209.5469272	10624.73608
210.085774	7029.136475
210.0873463	86550.58125
210.0890766	24187.51563
210.1101007	9408.192285
210.9405913	20692.73828
210.9767665	9592.509766
210.9852777	35430.42969
211.0367781	6751.670898
211.0731497	14596.65059
211.0906334	7119.086914
211.0941046	7620.228271
211.9861377	7516.938965
212.1029901	25279.17617
212.8518656	8500.429688
212.9827713	6533.956055
213.0009253	9784.486938
213.0524049	8214.940918
213.0636239	10293.69368
213.0886748	6714.667725
213.1251233	15595.49219
214.057313	8903.79834
214.0588738	100246.0641
214.2529491	7428.218018
215.0162518	10021.3126
215.0513417	11046.22734
215.062231	7087.710938
215.0696633	25859.43555
215.1253491	7167.866211
215.1352547	9597.678467
215.1390573	13564.0877
216.0569933	7736.181152
217.0836861	9863.778564
217.1047111	10969.18457
217.1547299	15996.72227
218.1358657	24585.78086
218.1371871	89113.01406
218.1386051	1051289.588
218.184723	7881.465918
218.1863602	88726.53906
219.0176691	27888.39609
219.0248976	10372.63989
219.026608	113608.2609
219.1403952	7395.655436
219.1420898	81134.92969
219.1744016	6710.861328
219.1897123	9354.270182
220.1429395	7747.766602
221.0333515	11660.16602
221.0506895	14078.39624
222.0292555	42585.78672
222.9882367	38665.59063
226.1047728	14865.22246
226.1410912	6313.383301
226.216273	7752.037435
227.1136352	38200.33672
228.2319477	17546.25195
229.1515291	7869.472656
229.1527384	33836.10586
229.1544173	313429.4938
229.1560308	8671.677246
230.1560393	5924.288574
230.1577976	38292.46953
231.1337167	6518.58252
231.1449241	11865.95586
232.1511788	19376.41133
232.1523055	84479.32344
232.154033	843398.7125
233.0782008	5807.414063
233.1493469	5777.841797
233.1556165	7925.918066
233.1574172	91542.46094
234.1582963	7872.846313
234.1607805	6906.775146
234.9379024	7024.80957
235.0660037	15427.21133
235.164837	5882.158691
236.9921596	8684.167969
237.0278541	7576.240234
238.0197412	5889.29541
238.0227279	42228.35703
238.0448018	12555.56016
239.1614647	11858.4377
240.0201884	6102.389648
240.038237	5814.033691
240.1203043	6744.180176
241.0679509	13501.11289
241.1273692	7458.031982
241.1292311	96834.83281
241.1543756	17680.86953
242.0786014	50812.25234
242.099611	6659.217285
242.1149792	16946.14395
242.1325672	11183.7125
242.2475208	12084.18262
243.0112743	6071.816406
244.0924915	7500.451855
244.1652902	6107.01001
244.1904228	9462.418294
244.2632228	7067.295654
245.0781611	6150.480957
245.1353999	52163.41875
245.1453493	7410.839355
245.1459335	8950.275146
245.1473434	50773.79609
245.1492629	548854.4375
245.150957	16826.78516
245.2261105	13535.61973
245.9678858	9071.426147
245.9804995	7838.056396
246.1387429	6266.389648
246.1508001	6057.071045
246.1526444	61881.16328
246.1677336	9565.482178
246.1696994	102485.1766
246.1809346	17086.35137
246.2293718	6464.480469
247.0296133	8408.900391
247.173064	12894.6877
247.2397176	9256.808789
247.2417445	103582.3297
248.1469521	16904.5207
248.1489493	182073.4938
248.1981778	14623.82637
248.2450879	32474.0168
249.0452197	39859.3125
249.095452	6622.357422
249.153296	48610.00078
249.1554061	487103.7563
249.1573183	11982.44375
249.2483593	5921.915527
250.0461155	7327.844727
250.1567987	5807.348633
250.158775	42348.19844
250.2138086	48655.85703
251.136286	7478.478418
251.2171528	7121.577148
252.081493	7650.535156
253.0945808	12039.84316
254.0002191	8727.864583
254.0187449	19070.22734
254.135987	12005.40703
254.2454349	8673.184448
254.2475268	91973.96875
255.0627187	5870.983398
255.1354062	18169.57793
255.2508695	14828.40977
256.0942257	6096.959229
256.2610875	8284.954883
256.2631704	106671.025
257.0419092	21146.25469
257.0911238	21654.84727
257.1469442	5883.170898
257.2665444	15940.65742
258.0735286	5903.592122
258.1098227	32322.78984
259.0771556	6490.634668
260.1831561	8302.184448
260.1853228	81913.19844
260.1965676	21176.19883
261.0519118	6167.054688
261.1887212	9885.137305
261.9544752	5661.457031
262.1260346	6898.28772
262.1281975	56762.10625
262.164583	49347.50156
262.9901901	10157.02031
263.0846658	6943.26001
263.1112608	5495.590332
263.1314968	7970.452637
263.1436896	11005.3707
263.1459034	118247.9766
263.1679051	6805.669922
263.2366338	33460.4918
264.1492128	10563.83828
264.1721343	12940.3418
264.2294672	17566.48008
264.2400148	7680.534863
265.0228258	6559.918701
265.0693096	6157.341797
265.1043148	15559.42422
265.1114897	6312.953857
265.2500648	18327.8875
265.2522462	205442.9063
266.0719483	7954.958984
266.187763	44193.10547
266.2556234	60663.62656
267.1102208	10162.67305
267.131227	7130.618164
267.1912398	6256.176392
267.2589157	6890.589355
268.0554369	6464.962891
268.1037078	10088.63389
268.2631395	18511.56152
269.0855281	6672.839518
269.0876994	69433.72656
270.0910457	7977.365479
270.1098643	13079.37617
270.2787756	31098.62539
270.9352785	7698.078125
271.1373049	23692.7582
273.0056126	8342.98877
273.0182217	11530.40352
274.2009499	6998.010091
274.2736919	10622.49961
276.1801963	21885.86953
276.2270227	14964.19512
276.2294052	156173.2
277.2327892	26774.13906
278.2426369	9356.692773
278.2450579	106776.1969
279.1912702	8557.868164
279.2484513	16935.60156
280.0916836	52750.46563
280.2607564	5875.931641
280.2631335	57317.16563
281.0782036	8919.741699
281.2665257	7621.166016
282.2743883	8000.300293
282.2763196	39267.37344
282.2787355	465957.6938
282.281101	10085.28027
283.0185503	17744.04375
283.2821058	45485.42109
284.2944407	20314.00625
291.0697107	5813.020508
292.0729071	18707.56797
292.2007589	15540.71602
292.2033061	174884.8563
292.2243059	6887.680957
292.2606601	32505.5707
293.0713615	54689.60313
293.2066691	29367.07344
293.2640502	7774.955664
294.060067	10388.72422
294.0723083	7232.756348
294.2013485	7405.145264
294.2188605	11913.05361
294.8542698	6039.519857
295.2226693	10274.33965
296.0631972	7836.057129
296.0659396	72832.68516
296.2583167	8757.164063
297.9733823	8302.956543
298.0640099	7909.640625
298.9928306	39518.45234
299.3057405	16302.06582
300.2297428	34547.39453
301.0167097	7954.825684
301.1409977	17216.85313
301.2329213	7629.916016
302.2404645	13601.55225
302.2424076	40626.87734
302.245355	366549.4688
303.2459568	6996.703125
303.2487346	67395.34453
304.2116896	9618.498372
304.2508752	8913.813477
304.2606431	3217403.7
304.2670448	10240.67852
304.2691994	8030.099121
304.2840878	11337.60625
305.0008525	25159.46797
305.2592841	17910.93047
305.2615385	53776.79688
305.264324	512276.025
305.9185828	9266.20293
306.2193754	34748.93438
306.2402793	14452.22129
306.2677473	45203.99766
306.27666	39388.23906
307.0386294	21514.06563
307.0409273	48545.19531
307.0438037	552754.9375
307.0832189	8007.639404
307.2227091	8433.661133
308.0471875	54864.57656
308.0880734	8493.880371
308.0910297	79842.28906
308.1985546	14555.44473
308.2350005	21359.80586
309.042021	41891.98438
309.0943873	9477.849609
309.2036095	8016.407715
310.0470534	18303.43633
310.97442	13865.32461
311.0309702	8466.675781
312.2896216	11925.52832
313.0517366	7604.126709
313.9473425	11883.26113
315.0662214	13635.01777
315.1275417	9430.968099
316.0549061	11890.37227
316.2003706	8058.585693
316.2037129	76215.09063
316.2227943	10014.82813
316.3209706	46256.73984
317.029196	11725.86133
317.1149455	32857.88242
317.2070962	12238.51191
317.3242961	8699.280599
318.1182018	7805.914063
318.201954	8636.311523
318.2137114	25563.80469
318.2158612	59229.35703
318.2192377	722886.9625
318.2402688	54922.875
318.2766585	11889.01816
319.0279835	8155.853516
319.2190838	8156.696777
319.2227135	126350.8875
319.2436211	11074.94297
320.0910636	10197.4499
320.2139094	8419.881673
320.2175482	49946.12188
320.222314	10401.63848
320.2248909	18078.91191
320.2281805	100597.2734
320.2294062	127824.7031
320.2312591	354116.75
320.2345665	6229190.8
320.2375365	257128.9766
320.241651	17130.71777
320.2425901	10470.50391
320.2440306	9072.873828
320.2452781	8734.592773
320.247804	8413.942139
320.2489394	8561.237956
320.2525319	9875.557813
320.2557526	111301.2609
320.9715429	8502.999268
320.974762	118024.3922
321.2020298	16130.74297
321.220958	8659.297201
321.2324456	40043.96641
321.2347651	61408.27734
321.2381797	981638.3375
321.2593368	20595.29922
321.8924315	16733.9457
321.9780382	9545.736084
322.0548653	9090.446533
322.0703028	11110.05859
322.2272258	10744.62129
322.2295509	23735.50977
322.2330581	333887.5438
322.2382236	12419.48281
322.2416703	76838.7
322.2506291	51879.89844
322.9728764	10196.90918
323.0112421	10558.07715
323.2364682	54954.76953
323.2538933	10761.26465
324.2144726	8601.529785
325.1774944	11504.5998
326.9483189	8876.394531
326.9730963	7807.209635
327.3368788	7782.45752
328.0546659	20033.6293
328.0672243	39001.42422
329.0258722	18615.1209
330.0729395	33268.6293
330.2765127	8618.733398
331.0401445	27072.57344
332.0288893	20158.18516
332.1986233	9523.149414
332.2431246	8554.058105
332.2558876	18188.53242
332.29231	15712.28867
332.3158306	9153.389974
332.9564316	8449.655762
334.2142526	75914.45781
334.2352947	9854.351172
334.2506909	33637.60664
334.2650926	7818.220703
334.2679084	15850.44395
334.2715528	240754.2906
335.217497	15315.07637
335.2250133	11299.32656
335.2538814	8583.640381
335.2749357	47040.67422
336.2260547	7825.94873
336.2299135	112441.3484
336.2475008	7698.821289
336.2507982	19171.43281
336.9487491	56542.20625
337.233216	21284.45664
338.3416688	11804.0084
338.9468572	9125.181152
338.9853364	15875.25605
340.1884908	13630.95996
342.216975	9492.435303
342.3115346	9993.528906
344.99977	9270.735352
346.0469665	23075.84492
346.2506224	8028.13623
348.0703265	36437.71016
348.2663566	34654.5957
350.2539413	27735.79531
352.2248443	14314.82813
356.2326143	25929.21289
357.249646	8065.564941
358.1909051	9664.028809
360.3236097	11333.92275
366.0227033	5168.494263
366.2038146	20559.18086
366.231197	7012.256836
366.9607141	6708.953711
367.2071481	4875.553874
368.0286476	5993.596191
368.1118715	12270.26563
368.2125982	5546.925049
368.2152823	10943.58496
368.2193099	192345.8844
368.2323061	5601.827344
369.2227805	40260.45781
369.3108836	11403.54336
369.9844948	8346.00293
370.0519715	48744.42109
370.1906348	4861.233398
370.2175724	16222.01641
370.243758	6694.036816
370.2478999	124702.0391
370.3787684	4400.441895
371.0554026	5430.438354
371.2513466	23129.98281
371.3191404	4378.513672
371.3223845	7447.405762
371.3264196	123194.4578
372.206245	86938.55469
372.2450197	39522.42188
372.3105079	4407.186523
372.3298233	26749.58633
373.0377177	11400.90762
373.2095938	17748.15508
373.2442633	12972.55996
373.2482675	7527.488574
374.1919076	5794.675781
374.2034039	30064.63281
375.0035302	5187.897949
375.0532767	4735.931152
375.2066685	5800.481836
376.0781285	6574.478516
376.2972567	58829.79453
377.3006309	13079.20059
378.1932498	6050.697998
378.3130285	5385.24502
379.1990546	5322.074707
381.0888416	6751.627637
381.9966397	5924.578809
382.1466654	4379.612793
382.1986802	4319.90332
382.2746228	5209.376099
383.1031572	6165.608594
383.1156603	37792.88672
384.0026465	5583.95625
384.1190913	4986.736816
384.2063169	25064.70313
385.1189955	4573.417969
385.2097487	5296.150635
385.3169838	35610.80586
385.3421346	5356.010254
386.0258749	99266.17188
386.2034051	6415.111035
386.2139091	8437.01582
386.2216677	437968.3563
386.3203174	7626.895215
386.326093	4836.780273
387.0291918	9751.2125
387.0773722	5629.700358
387.1798183	6544.834863
387.2205883	4930.571777
387.2252281	77322.02656
387.3212774	5305.036784
387.3326216	30796.24961
388.0240273	5905.196191
388.2142848	7488.972754
388.2189644	128986.9875
388.2287471	6812.165137
388.3054488	4952.402466
388.3359366	6626.278809
389.1792398	5808.336816
389.2223058	25082.33125
390.0104367	5192.505371
390.1722797	6613.739746
390.2169471	8590.54834
390.9776675	6340.356689
391.2837853	6785.168652
391.3427548	7380.044531
392.0339425	10598.91035
392.0522771	12468.56484
392.1055335	5611.730591
392.1694577	4640.192383
392.2642198	8436.632422
392.9770353	4913.499512
393.0828661	10490.28291
393.3083702	19610.53164
393.3221034	13138.91895
393.358405	39360.07109
394.1024038	5973.600098
394.2797985	48465.39844
394.3117862	4948.787598
394.3618346	9169.19502
395.019591	5652.051147
395.1251844	14572.16934
395.2801528	4490.64502
395.2833867	9532.00332
395.3239594	9298.785645
395.3327706	5196.862305
395.3375971	98143.47188
396.2507422	9245.414844
396.2774949	5311.474414
396.3080463	41284.80781
396.3410183	23089.13633
397.279634	4612.29187
397.3113674	9043.603125
397.3419258	11944.25664
398.0203409	5117.487305
398.0328579	9836.945508
398.345692	4661.92041
398.9226856	5139.582031
399.089761	5131.732544
399.1441555	12456.19941
399.3326633	10885.88359
399.3577672	19919.67305
400.1571855	41427.35547
400.182079	4916.069824
400.2009845	4748.622803
400.3166669	7511.605957
400.361264	5156.041178
401.1604172	5561.851465
401.2440692	5859.825
401.3483837	5050.995117
402.2250488	7776.818457
402.3574304	5301.846191
403.0832127	9264.626367
404.1960775	6605.308691
404.2064085	5825.954102
404.2170467	4807.36377
404.3267279	8435.734473
405.1064165	7625.980762
407.2935246	9541.186328
407.2990772	4724.555664
408.0078668	23941.8668
408.0205915	11112.46836
408.0332663	5928.031616
408.0794482	4959.825928
408.3080583	60817.40781
408.9510251	10332.17227
409.0567819	15001.69727
409.1617716	62872.02891
409.1831967	5817.817139
409.3114323	12198.79219
409.3171444	5873.30625
409.9867261	5723.160889
410.1651861	14587.43184
410.2574172	10695.06543
410.9935738	5013.242554
411.0284054	4568.249512
411.332633	29547.55977
411.3575522	4456.499023
412.3359074	6423.279297
413.2658209	10462.64961
413.3482742	35237.84063
413.3734021	28797.96797
414.006783	6039.653809
414.0312929	4622.291504
414.351641	4784.990479
414.3767945	6564.637988
415.1568211	23411.2957
416.0842835	24004.29766
416.2743695	22540.10977
417.0141661	4465.806641
417.0876005	4322.365234
417.2778443	6602.504395
417.3196662	18519.725
418.3229471	4745.215088
419.0571863	10264.57949
419.0871737	7155.308301
419.3110816	5273.369385
419.3239296	5038.363525
421.3396447	4772.841064
422.1391072	8815.718555
423.981734	12194.81738
424.2196589	4970.56958
424.276513	5710.734131
424.2818574	104772.5563
425.1260368	8012.840625
425.1354	471412.0188
425.2852854	20572.3082
426.1389452	99204.45156
426.2800363	5401.658447
427.0023447	5469.815625
427.1338722	28744.34063
427.1429822	8084.015137
428.1370679	6184.747681
428.3729168	4407.840332
429.2397886	10914.59629
429.2626855	8446.871289
430.0151921	8042.495605
435.0612576	3969.043701
435.3301011	27343.87578
435.988645	6423.757715
436.3334572	6681.825391
437.1386846	10653.9373
437.3133745	4054.799479
437.334288	4234.879028
438.0661574	9834.191602
438.1131632	5169.225146
438.2696687	3854.579671
440.1934023	9908.112305
440.2852394	8529.368457
440.2991484	4304.405518
440.9331712	7163.643945
441.0390377	4452.98291
441.0692286	4769.063086
442.0435974	4108.435547
442.3005596	3992.418457
442.9762482	4408.454163
443.0535186	3980.324707
443.0622421	4784.349365
443.2335089	10868.2168
443.322301	6579.259082
444.3425532	4071.427246
445.0615717	6974.443555
445.1196552	4680.757568
445.2425243	5924.101855
445.2491168	75889.81406
445.3380345	4943.714258
445.9820643	4133.616089
445.9889733	44391.29844
446.2525974	16075.05645
446.9066542	4694.355591
446.9923114	3954.369446
447.2480351	4480.133179
447.3422599	4124.084473
447.3577603	6329.848926
448.2222478	6211.96543
448.3139426	3919.72937
448.3756141	5711.961816
448.9618616	9876.685547
450.0055903	8471.470313
450.193396	5806.236426
450.3173626	5232.007422
450.3297677	30442.34805
451.069618	8330.51123
451.2572252	14717.72344
451.3046035	4867.612402
451.3138304	7226.819922
451.333054	7157.943945
451.9627721	3711.488159
451.9874646	5628.726953
451.997135	5970.810669
452.0439999	8498.066602
452.1903953	4358.490153
452.3132075	3993.201904
452.3706938	4838.892871
452.9149818	3850.616821
453.0689118	9166.635352
453.0815273	8648.20957
453.112565	11647.59063
453.2092443	5271.703979
454.040135	27692.8707
454.9958819	4596.07417
455.0432204	4014.157898
455.0744522	3826.357361
455.0871547	4126.591146
456.115581	3510.545654
456.1674886	4794.031982
456.2730611	5064.943359
456.2927567	6552.005371
456.9071946	11781.97676
457.0130286	6483.384668
457.0430309	12002.73672
457.3744536	4399.353857
457.970594	4744.65791
458.0771396	4751.740234
458.3084631	8752.526563
459.1205166	4653.150049
459.3171838	10526.54141
460.0707246	6455.273047
460.0948551	6660.180762
460.9433924	4085.971273
461.332795	55375.11016
461.9628792	32293.50273
462.3362324	12035.1041
463.0692424	9471.616016
463.9613884	3941.289307
463.9872149	3904.134766
463.9999328	3684.890137
464.9580104	3842.757446
465.2155259	4261.364502
465.3198753	8700.562891
465.365713	20870.55234
466.3037541	6500.479492
466.3691931	5885.805469
467.0435187	14277.21563
467.1014384	15007.59141
467.2311019	19402.60898
467.2877555	4307.717285
467.3080913	4150.375488
467.9618224	4157.47583
467.9708439	21745.91133
468.0179141	4499.90271
468.0275726	4717.863037
468.1007079	4234.003662
468.2343685	4739.966602
468.8886731	5163.479053
469.0552709	7440.219922
469.3242646	13711.89824
469.4107155	10559.29668
470.0138527	8167.858887
470.3277741	3915.075195
470.4142895	3995.327881
471.0611417	7860.354785
471.1328586	30203.93125
472.1361056	4739.31167
472.3118428	5413.820313
472.8810182	3653.554688
473.0170149	4532.927429
473.0846266	6042.733398
473.1346989	6418.221777
473.9443499	4111.704427
475.0634523	4289.153137
475.0946047	6098.642285
475.3735434	4427.516602
476.0219321	5604.362891
476.2274355	10370.30508
476.2382233	4013.251465
476.3326	8924.187109
477.0689142	4011.762939
477.2304624	3870.229248
477.259933	4005.923258
479.0252031	4927.425049
479.1393935	4236.058167
479.3352512	37405.24688
480.3386382	8456.417773
481.3324155	10726.05859
481.9976673	3819.109131
483.0173049	6711.631738
483.075337	19377.3959
483.3147357	5248.246973
483.944798	23054.31914
484.0746176	4892.405273
484.3115019	16580.1293
484.3238875	68868.09922
485.0637074	10575.25723
485.0722534	4267.710815
485.3149801	3550.834961
485.3272943	13637.35938
486.3267609	6205.827734
487.3265086	5763.64917
487.9738797	5337.719531
489.02536	7274.950293
491.9960064	5193.152148
492.2565748	4467.342285
493.0430379	5791.801563
495.0541858	3908.575195
495.0663655	11608.2168
497.2351331	3840.54895
499.9186071	5313.681592
500.2385169	8385.81709
511.0411973	4808.903467
515.4133106	38181.68984
516.4166373	12807.78887
517.0123667	4941.22998
517.3965669	16574.54531
518.2501094	36839.49648
518.4000578	4880.068115
519.2533486	10470.66152
519.2952772	6231.730078
522.340413	3618.526123
525.3381643	5310.9139
525.3877969	5029.484668
527.1824193	10409.93164
527.183615	6958.701782
529.4706679	7201.397754
530.3180421	3607.42749
531.4081964	17730.12617
531.4862128	19137.06602
532.3962846	4324.55658
532.4115376	5076.131152
532.4398082	20105.6668
532.4896238	7021.621875
533.0224558	8041.799805
533.0235431	8049.802612
533.2499668	5497.238867
533.4423292	8265.689453
533.4434413	5222.18103
535.5200692	18736.92813
536.5236089	7599.369434
537.1681293	5066.927734
537.169616	4087.73877
537.378354	24519.14961
537.3941562	992175.875
537.4025445	24552.2793
537.5357905	17309.64824
538.38172	10188.44746
538.3894139	13771.59961
538.3980373	270102.2
538.5390235	6683.329395
539.3535578	4097.495605
539.381071	3528.516357
539.3909249	29348.00898
539.4017431	36564.60156
540.037769	3563.945068
540.0390372	4361.910645
540.3945438	9817.939844
541.0995504	5498.404883
541.1209402	5636.990918
542.121353	3635.435547
542.2155202	5261.681152
543.1783902	4789.411621
544.3110364	4285.001318
545.4070178	16138.09258
545.4230131	555540.9375
545.4408575	3563.69043
545.4460649	4504.611816
545.5019663	10850.9207
546.3064663	5207.065723
546.3269329	3520.829346
546.4099141	5547.718555
546.4171503	8526.040039
546.4270034	162042.7563
546.5056162	4140.035828
547.4194679	18742.24941
547.4306419	23666.56406
547.4603607	12663.26992
548.26715	3563.847168
548.2755221	5107.276465
548.2857363	74128.6375
548.4232021	6295.642456
548.4641472	4115.615885
548.9979258	4217.239014
549.2891441	23488.36836
549.5359745	5635.767773
550.1157798	4387.171143
550.2911462	4279.770752
550.3603499	32219.36016
551.0869871	3508.695801
551.1008759	4439.633789
551.3633528	8567.248633
551.5513178	4034.729004
552.0179397	4327.567383
553.3284264	3940.497477
553.3317107	3806.539185
553.3356259	4483.627808
553.3399572	3806.321777
553.3488059	51603.71328
553.3677215	3133925.1
553.3759982	92663.57292
553.3885	150998.0188
553.4005052	4061.899109
554.0776737	4283.023031
554.2788503	5306.783203
554.2912056	6068.320313
554.355442	22638.37734
554.3715215	988928.575
554.3802257	25782.51628
554.392923	44492.68203
555.0040813	4511.661133
555.0059012	5693.90332
555.029822	3841.156982
555.0309769	5021.632813
555.3474125	7117.703613
555.3486578	6992.81543
555.3558802	12337.7312
555.3665483	234068.7063
555.3744343	119443.6438
555.39724	6799.393652
555.486393	8564.385547
556.3701535	56121.93906
557.0734869	7876.378418
557.0951688	14714.01113
557.3629967	6417.885254
557.3641929	5939.514771
557.3730494	7437.340983
557.3742251	7222.46875
557.4837034	4575.898486
557.5019441	137043.3969
558.0941304	5942.09375
558.5054557	41748.54375
559.0922337	4244.267432
559.1513463	22013.93906
559.5071507	8319.312012
559.5175331	70464.10703
560.1544401	4577.185352
560.5211418	22658.725
561.1533458	4174.174683
561.5358698	39068.03906
562.5391701	13761.7582
563.5329463	7266.53125
563.551262	199778.1094
564.2773338	5218.44873
564.2789894	5619.929077
564.554857	63349.425
565.5583832	11476.73594
565.5668738	5750.51123
569.3451616	12915.37695
569.3634955	366416.3563
569.38518	3906.523193
570.3482906	4135.671692
570.3566111	4237.522461
570.3674715	101393.3906
570.9795696	3882.093262
571.3623511	22864.07148
572.3648522	6839.637207
