mz	intensity
74.0202315	10141.15918
74.02086521	9953.423828
74.02589581	11131.27734
76.86786029	9535.782227
90.05491819	11990.47754
90.47116043	11468.85352
96.96862267	9974.412109
97.00500434	23358.96914
98.99549459	42593.55313
101.0596924	10050.94043
101.3289536	9290.677246
101.7314684	9452.445313
101.7339435	9920.650391
101.7350373	11955.85254
101.7354555	10719.3125
101.7360972	12060.29492
101.7366039	10556.25098
101.7369487	14367.21191
101.7373685	9974.553223
101.7377874	11435.61914
101.7388419	12995.229
101.7393162	11607.27669
101.7397817	11147.78711
101.7400431	10492.98405
101.7404716	12362.97656
101.7410391	14017.64893
101.741413	9987.128418
101.7416302	13722.85742
101.7418652	11943.71484
101.7424163	15048.0166
101.7427244	11405.74316
101.7434416	14269.17969
101.7436461	12023.50977
101.7438912	16737.50586
101.7443005	15477.10791
101.7446205	16005.27246
101.7449035	13062.15527
101.7457637	13135.38867
101.746133	12247.62174
101.7465719	14073.85303
101.7469736	14642.60156
101.7473667	13286.39258
101.7477486	12487.77734
101.7480831	13133.60742
101.7484545	14446.78174
101.7486875	18882.83203
101.7489611	13531.75814
101.7494316	16590.52116
101.7496602	13924.94458
101.7501083	12345.25651
101.75033	14318.40039
101.7505919	14411.04395
101.7509843	14954.18115
101.7514651	14086.17139
101.7518276	14383.22461
101.7521173	16138.1604
101.7524722	13074.94141
101.752821	12837.06592
101.7531407	13548.5873
101.7535955	14492.13696
101.753942	14721.18978
101.7542598	13432.96908
101.7544882	16520.70638
101.7553121	12994.77441
101.755524	14227.18066
101.7557424	12458.07617
101.7562365	20419.46484
101.7566568	14111.77279
101.7568885	10638.35449
101.7571727	16117.88818
101.7577991	15570.41862
101.7581523	17688.19102
101.7585317	15634.38216
101.7587365	18473.37728
101.7589985	16822.21354
101.7592783	23454.87174
101.7595469	13256.27832
101.7597783	14737.1832
101.7601587	19617.77178
101.7605579	16303.5752
101.7607664	19880.73047
101.7610451	11773.73828
101.7613661	22583.76563
101.7617352	18508.89616
101.7619962	11835.94434
101.762265	21226.59375
101.7624694	12653.16439
101.7628293	19583.69531
101.763195	21853.07943
101.7635128	21525.98145
101.7638101	18408.10181
101.7642467	19902.13281
101.7645724	13529.62207
101.7648559	21856.90365
101.7651376	15036.48096
101.7655738	14769.13047
101.7659138	16272.27197
101.7662951	18159.18809
101.7665493	15828.80566
101.7668392	16777.81087
101.7671478	16756.65202
101.7675327	18092.37476
101.7678985	15357.80059
101.7682937	16463.74316
101.7686229	19182.14902
101.7689146	21163.04492
101.7693623	16757.82578
101.7695837	26789.46777
101.7699375	23166.57682
101.7702582	23885.49473
101.7706827	23352.92598
101.7711378	25735.54316
101.7716585	25359.71094
101.7719208	26360.46436
101.7723727	16852.48916
101.7727287	28402.30208
101.7730514	19107.01523
101.7733535	27584.47412
101.7736874	30215.70898
101.7739319	29059.07471
101.7741945	21148.08333
101.7744704	25298.41797
101.7746926	22778.83398
101.7748966	24026.5896
101.7753193	30338.16719
101.7757189	22792.75358
101.775949	20800.06836
101.7763305	26289.47227
101.7765634	18288.55273
101.7767907	28540.27441
101.7771796	24226.11499
101.777605	32620.10775
101.7778364	27887.96021
101.7782767	35841.84297
101.7786541	20494.2356
101.7790191	31473.77637
101.7792999	30156.42236
101.7797289	26119.06673
101.7800033	24708.80322
101.7803524	27879.4832
101.7807359	44906.61992
101.7810371	30695.42025
101.7813044	28681.9401
101.7816409	29260.70288
101.7819897	27106.36182
101.7823133	28055.23242
101.7827043	28910.62988
101.7829626	22097.9832
101.7833436	22522.23516
101.7836234	23935.08086
101.7839021	23070.88932
101.7841632	19787.44873
101.7845039	21158.11584
101.784933	26978.07207
101.7852998	24023.60449
101.7855202	19835.44434
101.7859433	24390.41797
101.7863738	26566.92041
101.7866299	20746.6377
101.7869092	22093.94897
101.7871352	11567.18652
101.7874255	17514.10962
101.7878326	24592.94238
101.7880473	25846.73926
101.7883091	19345.95264
101.7886485	17306.38562
101.7889924	14781.05688
101.7893659	18740.8584
101.7897068	13704.12134
101.7899924	14310.38545
101.7903016	16691.43872
101.7906099	18234.55469
101.7909795	15846.79736
101.7913188	14983.80957
101.7917809	17394.00195
101.7920507	16631.30322
101.7923522	12735.43424
101.7927287	15969.29492
101.7930569	16492.06299
101.7933996	9774.04541
101.7936835	10666.14258
101.7941425	10751.00146
101.7944125	11986.14355
101.7946867	14719.25635
101.7952481	11855.21582
101.7954946	13619.63346
101.7959571	11800.83138
101.7963517	9737.85498
101.7966056	13293.229
101.7974251	12673.81055
101.7979625	13661.97217
101.7984291	9416.234375
101.7990971	11948.35938
101.7993402	9997.123047
101.7997894	12800.35645
101.8001331	11762.11865
101.8006345	11557.2334
101.8018643	11019.31152
101.8022617	11098.25977
101.8194403	9513.03418
101.8228469	9264.295898
102.0913096	15990.74023
103.0389425	42698.43984
104.0705606	9592.579102
104.1066528	11287.90039
104.1069688	53609.87578
105.0032577	10034.39258
105.4879126	10887.89746
106.0498392	15068.12754
106.950558	24102.63008
112.0368958	11217.72982
112.0514611	14901.63184
112.0518311	29905.90684
112.0522965	264278.2438
112.0526429	19775.25781
113.0209165	20653.3498
113.055662	12162.26172
114.0504188	21724.22852
114.0661792	54651.53516
115.0365667	21939.16289
116.0706013	38069.53984
116.9771001	12176.98307
118.0849688	10574.98926
118.0853454	33652.16367
118.0857159	52668.42734
118.0862483	609447.275
118.0866567	51917.55469
119.0189235	20593.66152
119.0896185	26744.88008
120.9808349	13353.89746
122.9245155	15632.96387
123.0138412	32090.77305
123.0552866	29160.87461
126.0219416	12036.63835
128.010266	9757.445313
128.0108453	41116.98281
128.9941816	11368.46045
128.9948595	47395.46172
130.0492083	20015.99258
130.0498806	88475.32031
130.0628634	10424.31055
130.0862778	12186.42969
131.0098366	27612.52734
131.0105136	93762.4125
131.0182215	11624.50195
131.0189343	32802.57773
131.0532326	12459.25
132.0648912	10457.09863
132.0655011	27864.34648
132.0687266	10258.27539
132.0715832	10266.21582
132.0719356	11043.20801
132.0724573	9494.974121
132.0729185	10885.92676
132.0734864	12364.46162
132.073916	15656.99063
132.0741903	16806.46924
132.0745853	32166.22031
132.0750058	81915.34375
132.0755583	398465.7625
132.0760928	1848684.6
132.0766775	18284170.8
132.0772126	2112700.45
132.0780127	43784.97852
132.0783684	27119.44473
132.0787956	22820.69766
132.079111	19579.56211
132.0794312	17159.04697
132.079853	14047.82646
132.0801725	13354.04141
132.0804869	11523.24102
132.0809521	10835.88301
132.0814899	10313.67676
132.0821921	9724.580078
132.0846086	10299.46387
132.1007787	19041.2832
132.1012505	70861.22344
132.1019201	237961.7969
132.1024903	16958.89282
132.4413277	9625.421875
132.972009	13838.44971
133.0086273	12854.29824
133.0164858	12914.08398
133.0317909	11239.91797
133.0339216	13203.35527
133.0345997	53520.40391
133.0607818	13193.34603
133.0726178	10761.9196
133.0731275	38292.99688
133.0737978	128567.9516
133.0785161	10369.12435
133.0789337	40990.34219
133.0794545	140662.1938
133.0801206	550635.8938
133.0806266	40442.83594
133.0810539	9526.916992
133.0830636	15611.16426
133.0858849	10841.58057
133.0971636	16203.96094
133.1052744	21232.32773
134.0353867	12737.60303
134.0435841	11501.42358
134.0440987	32387.47422
134.0448028	127348.2438
134.045334	10488.05859
134.0771702	10627.2334
134.0803568	10915.92236
134.081002	57750.29531
134.0834622	11238.35547
134.9964915	33351.8043
135.0021665	15414.16348
135.0028742	78251.37031
135.032162	10350.95182
135.1016006	11210.70996
135.5283027	10687.00586
136.0469149	31676.55
136.0474276	78334.16406
136.0481385	498009.1938
136.0486959	40525.75781
136.061063	15018.84258
136.0617776	87553.01563
136.0732698	15020.69336
136.938823	9579.605469
136.9393315	20520.77773
136.9400581	127433.8625
136.9406572	10005.23047
137.0294963	53769.16719
137.036236	10201.05762
137.0445504	18665.92832
137.0450606	45041.60156
137.0457863	310958.3125
137.0463397	21718.24023
137.0514913	20100.72188
137.0573102	20040.07832
138.0491372	16392.62988
138.0525638	29260.89102
138.9382013	10766.36426
138.9641293	15519.92793
139.0148601	15192.03203
139.0156009	75967.66875
139.0365843	12064.17383
139.0494353	10729.41211
139.0502352	38887.31875
139.1117978	10485.41439
140.0664619	17492.08105
140.0669403	91940.72188
140.0674751	297232.35
140.0681654	2178531.55
140.0687621	168135.3406
140.0694555	10780.33252
140.9948678	22751.45469
141.015836	18450.35352
141.0311992	9880.37793
141.0708091	14788.72012
141.0715768	91848.075
142.026401	16044.30313
142.9480935	34895.34531
143.0105228	12795.37337
143.048517	10513.18066
143.1066956	13335.28027
143.9880927	30852.12344
144.005783	20894.4248
144.1011502	10958.19751
144.1019377	58247.63203
145.0261906	22394.47031
145.0346195	16659.02012
145.0372644	22467.56328
145.9673019	10175.60547
145.9851517	11255.68294
146.0924482	21651.73926
146.1156735	10184.86255
146.1161816	47273.08672
146.1167818	122409.3016
146.1175764	737434.0875
146.1652083	18229.19121
147.0138213	10790.20508
147.074517	19341.88438
147.0750448	98350.1875
147.0756455	338216.1938
147.0764018	2280164.95
147.112035	9431.700195
147.1128295	42592.65938
147.1201508	11225.83496
147.1209396	54705.025
148.0024745	27645.49336
148.0030683	71187.57891
148.0039082	428599.75
148.0045268	30915.61003
148.0426852	11477.11621
148.0590182	41291.78203
148.0596232	112051.225
148.0604556	676764.5375
148.0610889	49133.06328
148.0734713	10926.7666
148.078956	13567.45176
148.079799	91726.05781
148.0968556	11437.01978
149.0072552	10427.42041
149.0638135	29681.61602
149.0806894	10051.50293
149.9928165	13505.7957
149.9997144	14999.92578
150.0583642	25782.96172
150.9753343	11268.58203
150.9759482	32138.5207
150.9768327	196285.675
150.9775522	12187.46387
151.0478197	23186.15117
152.0212421	11997.23828
152.0221111	68374.77031
152.0318479	10731.44727
152.9749929	9707.054688
156.0405901	39811.64844
156.0412647	132521.5609
156.0420569	1113362.55
156.076711	10617.64189
156.9897452	8771.854492
157.0107144	12339.69004
157.0445603	8108.486328
157.045469	56911.77031
158.0393734	11341.70859
158.040217	82152.81406
158.9219739	37545.09609
159.0138123	21860.33438
159.026832	7472.114746
159.0277083	48855.00625
160.1323236	10243.12134
160.1331728	62839.69063
161.0111547	10743.81025
161.0294743	7997.644043
161.1284108	16939.54922
161.1364947	7698.298828
162.1092518	8518.75293
162.1098549	14796.24844
162.1107475	103562.1719
162.1114875	578566.7375
162.1123116	5106185.7
162.1130756	456074.3625
162.1142103	12141.36895
162.1146909	8054.836914
162.1150199	8494.310547
162.9556649	17108.05742
163.0450968	24956.10234
163.1095106	10534.17188
163.1140663	10227.69023
163.1148378	42740.62969
163.1157981	290615.0875
163.1187353	9996.941406
163.976083	12825.11914
163.9768708	38109.90469
163.977797	337602.2688
164.116682	23840.88672
164.1191615	8620.790894
164.9811523	10947.92529
165.0545894	8583.43457
165.9736081	12238.29434
165.9759286	25451.93984
166.0862312	53512.31641
166.9497016	10760.55293
166.9507048	133136.2688
167.0207029	13605.08027
167.0217031	170842.5656
167.0314394	11386.64492
167.0400349	10395.9375
167.0468524	9040.796224
167.1041808	8866.355957
168.0047356	8252.138672
168.0057186	76739.66406
168.0250079	8611.979492
168.1018707	10508.93799
168.948823	17259.27754
169.0198146	10115.63892
169.0261252	12047.5873
169.0573432	9253.993359
169.0583346	110623.5906
169.9858225	9368.25293
170.0308349	15383.27188
170.0316049	54669.06406
170.0325794	539370.8125
170.0423501	28167.94102
170.057724	12035.87246
170.0616472	8778.039551
170.0811403	13309.49785
171.0296354	8254.743164
171.0359672	22380.90039
171.0417836	11595.33203
171.062755	10665.88887
171.0991107	8552.111084
172.0006488	25299.58672
172.0307291	34974.51484
172.1331742	16079.87988
172.9846668	44381.94141
173.042029	10018.40371
173.0574223	9895.990967
173.0784386	8401.880371
173.0808086	79770.41563
174.0842188	7759.853027
174.894798	8518.842773
174.8959291	69863.275
174.9913633	11901.0248
174.9997381	9051.171631
175.0005763	24684.425
175.0016408	285195.5813
175.1178563	11509.74961
175.118936	134151.7469
176.0050246	12140.53867
176.1223231	9579.509928
176.8940273	11377.01699
176.9997754	17149.40742
177.0607526	8458.515381
179.1284373	45661.27578
179.6300965	11155.2666
179.9822462	10396.85
184.0733106	17068.38145
185.0322921	7935.293457
185.95976	9960.248047
186.1124355	10167.10078
187.1258907	59256.47344
187.6275526	12475.72437
189.0159563	21058.89297
189.052313	17910.7293
189.1598087	8325.955404
190.9119263	10567.24382
190.9965919	9890.858398
191.0316159	26944.92578
191.0387728	8687.047038
191.0400664	81034.78281
191.1042307	10140.53662
191.150245	9589.255208
192.014536	38189.06406
192.0242952	8149.787354
192.0407904	10329.37524
193.0019423	19390.93301
193.0376004	10711.9342
193.0624867	11162.53906
193.9825821	15567.01602
194.0325832	9906.895833
194.115135	19687.88496
194.9666097	21196.99063
195.0417497	8912.514648
195.078181	16377.85742
196.8778349	17270.00176
196.9697299	10698.86162
196.9835895	14309.71387
197.0072106	7772.626465
197.0574802	10262.50664
197.0937616	8160.30603
197.100769	7488.787109
198.0890759	9398.355469
198.0972146	20648.6875
198.9852322	8126.392578
198.9979904	8661.237305
199.0731536	9330.355469
199.1094703	12583.37637
199.1692836	15967.11426
200.0515741	9574.242188
200.0658721	16560.56172
200.0670036	56855.64531
200.0683185	441578.9375
201.0717299	28505.16211
201.0887531	13949.30879
201.9323015	13039.46816
201.9337061	119630.9844
202.066486	28794.40586
202.1801558	36387.44023
203.0316428	18885.5543
203.0386232	10883.67637
203.0400683	115405.7094
203.0500993	19215.54766
203.0511946	56420.52969
203.0525776	487506.9063
203.1390302	8561.805664
203.1502192	10662.80273
203.2229988	17867.84883
203.9293656	8070.867188
203.9318344	16475.56504
204.0408952	14061.48965
204.0421418	20564.65879
204.0433252	9628.898438
204.0559763	31347.27852
204.1179331	8154.606934
204.118909	12039.75977
204.1228595	5013475.2
204.1257614	12017.8502
204.1261964	9905.254688
204.1267501	8860.695801
205.0206084	8920.541016
205.0376142	15134.3207
205.0472537	12359.76823
205.0557163	38560.53672
205.0682022	8403.325684
205.09715	24540.28789
205.1200406	13314.06582
205.1238584	14994.04102
205.124961	42443.15547
205.1263688	354567.875
205.1293104	9314.783203
205.9616434	8887.593872
206.0538523	8054.143066
206.0552698	74725.80156
206.1272599	28045.48281
206.1297578	14570.18691
206.8857152	7829.189941
207.0127657	16308.56934
207.014221	149120.45
207.0781758	32751.33008
207.988496	32639.73633
207.9982509	38596.46523
208.0175626	8271.236328
209.0123205	12060.66582
209.0574293	10340.07422
209.0938077	11405.06348
209.1032543	15027.69121
209.1899703	8539.659424
209.9565213	16344.80332
210.0872899	62649.48984
210.0890719	31359.36289
210.1100685	9589.639648
210.9405448	31641.53008
210.9767878	8562.296021
210.9852349	40852.51016
211.0730737	14649.71719
211.0906452	8089.810547
212.8518349	14696.28691
212.9575698	19064.57832
213.0008514	10123.57422
213.052299	8684.919922
213.0748679	14250.51719
213.125128	8890.504069
215.0512868	14313.60527
215.0696337	9210.646851
215.1389952	11667.00073
217.0837029	9403.937663
217.1046347	18825.3543
217.938142	8350.346924
218.1358369	28254.53789
218.1371031	92450.60625
218.138613	1002916.488
218.1847651	8254.726563
218.1862968	85032.18594
219.0176241	24721.67305
219.0248496	8018.856934
219.0265475	64640.32891
219.1404217	9378.489258
219.142031	91731.81563
219.1743008	7988.290527
219.1896486	8559.662109
220.1429299	9782.585938
221.0505776	13705.23516
222.0275335	8710.270345
222.0291948	89639.27656
222.9864864	9546.916748
222.9881727	100611.2891
223.9721841	12201.25605
224.9863169	10590.71094
226.0838552	5795.749512
226.1047827	9573.482813
226.2163694	7212.539876
227.1136546	28075.4707
228.2319669	20983.54414
229.1515367	8546.778809
229.1527578	39330.87031
229.1544177	341511.6938
229.156026	9003.831543
230.1577759	42344.98516
231.1432719	6454.255371
231.1449367	36020.01523
232.1485731	7398.463379
232.1511647	23347.67773
232.1523121	106238.7875
232.1540426	1001953.863
232.1556694	32757.14388
233.0782961	8154.517969
233.1493523	15600.64629
233.1510942	6599.881836
233.1556632	10917.9291
233.1574412	114798.5719
234.1583492	8674.935547
234.1606997	6811.683105
234.9378899	9611.24834
235.0660004	22240.91953
235.1631135	7088.754395
235.1649528	69875.54063
236.1682955	6719.594564
236.9922297	7284.57666
237.0279094	7493.294727
238.0196511	6200.841309
238.0227527	30192.47109
238.0447962	6958.201904
238.1563831	7343.888184
239.1614664	8724.967871
240.0384413	6591.11084
240.9956301	7647.504639
241.0081944	7804.971191
241.0679814	7216.881958
241.1543628	12327.55684
242.0786055	51939.60625
242.0995603	8231.003613
242.114991	17186.24434
242.2475156	13455.53281
243.0111704	9177.580404
243.0737884	17451.9875
244.0925237	9007.694043
244.2632085	7302.616699
245.1353982	31584.47461
245.1459872	6789.292676
245.1473642	28349.33945
245.1492982	287469.0688
245.2261152	18031.93477
245.9679265	6566.871826
246.1526725	32559.50117
246.1677138	7931.527344
246.1697282	97662.1375
246.1809622	19427.33359
246.2295252	5981.658203
247.1730578	12211.99395
247.2397521	17400.68145
247.2417334	157936.6
248.1469927	14508.65469
248.1489648	150887.0781
248.1982184	11103.85684
248.2450907	43090.69375
248.9324422	6598.791504
248.9408845	6750.827148
249.0452616	33726.08594
249.1510602	16991.81855
249.1533125	112846.8578
249.1553818	1188079.55
249.1572596	38025.25781
249.2484985	7968.096191
250.0460298	6288.731445
250.1524507	12920.84102
250.1567192	8111.937402
250.1587908	104634.4188
250.2138468	40231.78047
251.1363271	7922.283691
251.1597222	8559.634521
251.2171936	8552.44043
252.0815847	9150.970825
253.0946044	9516.577539
253.1267557	6324.569824
253.1404649	12665.62344
253.9937285	6482.736328
254.0002011	5821.629395
254.0187391	13043.95488
254.1359921	11421.95742
254.2454383	9621.54043
254.2475234	104054.4578
255.0626368	5942.368164
255.1353896	15560.39512
255.250877	17607.01387
256.0943223	8809.313965
256.2610926	10376.27363
256.2631671	120883.5375
257.0418608	17891.9043
257.0911167	10574.37637
257.1469052	36652.63672
257.2665464	19873.72344
258.073538	14002.95234
258.1098063	13847.98262
259.0771966	10293.19023
259.9985905	6971.911784
260.1831605	6889.766439
260.185338	70411.58281
260.1964244	8019.813965
261.052042	6798.317383
261.1442225	6812.647095
261.1887401	8343.087109
261.2210138	7574.478516
262.1260619	6899.43584
262.128208	63213.60547
262.1645963	39516.66094
262.9901454	12421.0668
263.131523	6978.633301
263.1437264	9482.177246
263.1459318	85003.31094
263.1679214	6929.125488
263.1962081	9541.793359
263.23663	41511.84844
264.1493131	6949.555908
264.1721532	19340.74727
264.2294889	15868.4498
264.2400235	10844.29004
265.0227733	6554.27002
265.069435	7369.632813
265.1042392	6762.559733
265.1114636	10533.63184
265.2484039	6880.33667
265.2500557	32162.89531
265.2522506	329299.6938
266.0719766	5938.366211
266.1877761	62338.20156
266.2533841	6384.645996
266.255618	78036.59219
267.1102364	16130.61875
267.1910777	8495.455176
268.0554555	16725.80117
268.1149665	6659.289876
268.2631746	17707.7668
269.087729	29063.27422
270.1099167	21180.26641
270.2787912	34701.28711
270.9352721	6809.055786
271.1373395	42485.64141
271.282186	7629.997559
273.1207763	33329.06836
276.1802031	23540.81523
276.2270164	10915.90117
276.2294252	123233.5406
277.1044266	9621.509277
277.2327649	18699.77305
278.2426613	7945.454712
278.2450859	84227.175
279.1910991	15047.59805
279.2484155	13652.57793
280.0916807	12964.4416
280.2631352	43375.55234
281.0295587	6587.097168
282.2744676	6550.483887
282.2762949	23899.34258
282.2787531	298640.1563
283.2821255	20321.15781
284.2944047	21921.98555
291.7019081	16763.39453
292.0729562	7088.680054
292.2007587	11499.55234
292.2033414	135537.7969
292.2607026	26073.84336
293.0713478	42724.56172
293.2066922	17056.87988
293.263969	8618.749023
294.0601431	7005.245239
294.0720236	6856.495117
294.8543663	10924.00234
295.2227147	12941.5168
296.0201373	9338.532227
296.0659386	36711.95234
296.2173619	8605.402832
296.2582165	8967.474365
297.9735327	7375.390625
298.9929365	7334.192383
299.3056933	18632.63945
300.2297054	23917.18164
301.1410456	10125.59351
302.2403779	10766.63574
302.2423968	29873.82109
302.2453884	281782.0125
303.2487684	52242.82578
304.2115565	9104.242188
304.2577076	260883.75
304.2607107	2687041.15
304.2633921	117673.7734
304.2670972	7911.574707
304.2844068	16769.48984
304.9910423	9154.303223
305.2595027	16714.18359
305.2613373	51522.20313
305.2643617	422944.1188
305.2670978	24184.05859
305.9184714	8471.318848
306.2193679	43182.67422
306.2402661	17424.37246
306.2677692	37093.1875
306.2767183	34151.22266
307.0387441	14675.25562
307.0407968	42162.43359
307.043869	354647.7125
307.0831181	8558.839844
307.2227202	8766.218384
308.0471797	35506.64492
308.0881102	8232.617188
308.0910526	59059
308.1985784	12275.24746
308.2350135	27477.64063
309.0420084	25680.05313
310.0470144	18071.14258
310.3105215	7222.829102
310.974348	9186.436523
311.030816	8802.646484
311.040175	9945.704427
312.2896655	9399.855957
313.9472644	12229.76094
315.0661857	9651.496191
315.1274841	14602.90156
316.0546346	8672.297852
316.1018007	13993.54219
316.1115203	8359.25293
316.2003039	8705.017676
316.2037128	89880.61094
316.3209441	55648.27109
317.0292204	9884.088574
317.1149936	27066.09375
317.147208	9722.793945
317.2070475	19864.92656
317.3243639	11178.89961
318.1182019	8415.549805
318.2019554	9295.55013
318.2136438	29831.06201
318.2158903	108862.3594
318.2192224	880985.2625
318.2403084	41469.93203
318.2767541	12071.6043
319.0278636	10148.73743
319.2167131	8345.289876
319.2191924	14399.03008
319.2227203	154510.5281
319.2435702	8136.547607
320.1988247	7965.731445
320.2138036	12143.96558
320.217468	62915.6625
320.2211024	8210.226563
320.2222871	14059.84316
320.2238292	11811.88477
320.2248833	27419.50586
320.2292493	184637.2969
320.2311553	402263.5938
320.2345312	8408615.1
320.2416218	24597.26719
320.2426022	14003.05933
320.2440612	13177.11406
320.2452344	11157.88301
320.2465487	8710.954688
320.247816	9092.697949
320.2489105	9132.356445
320.2518617	7571.006348
320.2526083	8808.476237
320.2557124	83278.51563
320.9650216	22695.17813
320.9747625	21033.25273
321.0708615	8738.540918
321.1309714	9203.557129
321.2020116	58282.36797
321.2210668	10856.94312
321.2322194	49727.56719
321.2347629	119822.9656
321.2381574	1320699.125
321.2592559	14861.90352
321.8925207	21291.40586
321.948999	10149.02422
322.2054198	8244.310181
322.2143723	8798.781576
322.227079	14829.04766
322.2294764	36519.67109
322.2331007	430335.9813
322.2378535	15286.01094
322.2416898	99015.18594
322.2506728	81392.42344
323.0114443	8558.726074
323.0387807	9230.235107
323.2177001	10006.95679
323.2364608	75906.59375
323.2539718	14218.8082
324.214419	8460.648763
325.1774349	13036.36738
326.9730742	10335.89193
327.0080496	7755.602051
328.0546048	9429.619792
328.0672529	16048.40508
329.025747	12070.88696
330.0729988	27916.77188
331.0400498	27128.10586
331.1012955	8618.30306
332.0289258	19587.99746
332.1985234	10354.86914
332.2561386	8146.841634
332.2922991	15344.04648
332.3158478	13735.56777
333.0033352	8707.073242
333.0130688	8374.263672
334.2142251	93233.18594
334.2352174	8654.777344
334.2506456	33449.35234
334.2680338	7480.866699
334.2715983	113617.3922
335.0018095	13283.20137
335.2176214	26235.85977
335.2250676	8539.257324
335.2539178	8605.999674
335.2651453	9739.806641
335.2749522	23386.80156
336.2122204	8809.567383
336.2260781	9999.300781
336.2299226	131323.3453
336.250962	15362.31641
336.9487378	16957.46172
337.2332194	23299.91484
338.0835114	7560.70874
338.2279424	9583.578776
338.3418244	12171.92793
338.9853861	17858.42324
340.1884388	24419.81289
342.9469257	7834.5
343.2339386	8596.641602
343.2952913	10103.98486
344.9995335	7579.116211
346.0470451	28672.31172
346.233761	9206.15332
346.2508897	7323.715332
348.0703109	11295.2688
348.2663841	30413.75625
349.2333862	10288.99316
349.2698281	7850.539225
350.2092622	8347.234212
350.2540008	37128.22188
351.257157	9049.727702
352.2248351	23574.0832
352.2459204	9100.858398
356.2327308	11229.39473
357.2496279	33886.12461
358.2529931	8149.745605
360.323649	10241.94746
366.0228819	4281.422852
366.2037859	30085.48477
366.2312227	12007.93154
366.960655	6161.161133
367.2071255	7109.620313
368.028577	6231.229883
368.1119371	13121.45605
368.2102383	5366.658203
368.2125877	10253.7373
368.2152646	15136.80078
368.2192471	343580.1125
368.2326315	4688.673828
369.0570733	4808.882324
369.2182465	5217.932617
369.2227802	65564.68203
369.3108724	17412.09043
369.9845065	10723.51133
370.0520311	14014.61719
370.1906346	5291.427246
370.2176006	28076.21484
370.2265054	6766.657031
370.2437661	5753.633301
370.2479442	96428.42969
370.3141592	5409.554932
371.2211077	5397.025024
371.2513932	19183.12344
371.3196829	5571.508545
371.3225385	8852.555501
371.326429	166945.3031
372.2062455	122864.0375
372.2450697	29308.9332
372.3298572	39148.78359
373.2097062	20979.1543
373.2442479	39567.13672
373.2483036	6976.148926
374.2033566	38170.9625
374.2475903	6603.728027
375.0037192	5073.848145
375.0650955	5602.736084
375.2067038	7149.425195
376.0782099	5472.545898
376.2973003	77310.97656
376.92819	5816.588867
377.3006715	17559.30742
378.2953166	5323.800171
378.3129575	5198.134766
379.1991801	7072.347266
380.1118683	5768.9646
380.2250258	5348.118164
381.0791153	6180.698242
381.0888268	6355.216992
381.9967834	6114.58916
382.1987515	5980.418945
382.2350849	5998.256185
382.2798046	6199.503743
382.9488888	4642.77832
383.1028944	6280.511068
383.1156526	18414.37461
384.002547	12205.52266
384.2062918	26857.26211
384.2143812	5206.709473
384.9994	4958.015462
385.1284865	6346.590332
385.2096323	5241.265462
385.3059997	5029.132324
385.3169632	35360.33672
385.342085	7338.365137
385.9584044	9167.848633
386.0258767	54408.19766
386.203393	8664.976367
386.2138386	9462.304297
386.2171847	24117.23242
386.2216366	575125.175
386.320302	7410.138086
387.0291977	5621.805298
387.0772926	7207.959863
387.179872	6487.681934
387.2208616	5970.414551
387.2252276	99746.97188
387.3213442	15203.40762
387.3325997	30327.32344
388.0239593	4678.836426
388.2142936	8866.58125
388.2189537	164147.2406
388.2287209	8399.874023
388.3247907	4907.053223
388.3359167	7160.94707
389.2222917	31113.44766
390.1723201	8437.673633
390.2170539	10448.93164
390.9775468	10855.82285
391.0388908	6753.963184
391.2838152	7257.014453
392.0229704	5306.462077
392.0522473	11641.17988
392.1695546	5940.305908
392.2641759	9038.205273
393.0828569	6142.606079
393.3083509	37682.22656
393.3220023	8106.227734
393.3584582	12141.78125
394.0594945	5250.84554
394.2797892	63292.49375
394.3118275	7820.410742
395.1251601	9039.714844
395.2807477	7257.019531
395.2833943	12853.16211
395.3239196	21186.38125
395.3376597	60456.30703
396.2507621	7887.962793
396.277461	7935.488867
396.3080912	29434.15156
396.3409894	12767.16992
397.311486	6378.316504
397.3420502	30392.64922
398.3454037	6714.833008
398.9228241	9123.592578
399.0895291	5360.375
399.1441095	17258.7582
399.3326594	10008.03271
399.3577647	23682.88906
400.1478832	4489.169922
400.1571859	24773.10547
400.2011745	5984.580762
400.3166255	9695.337598
400.361159	5689.59668
401.1607134	4910.698242
401.3005422	6217.35376
401.3369729	5519.692017
402.1803574	4289.047363
402.2249728	12639.76914
402.3321509	5695.577637
403.0513622	5177.030518
403.0832652	4265.041504
403.3163296	6822.848145
404.0352275	4939.65625
404.1960502	10784.03789
404.2063638	7269.999707
404.2170789	5210.588867
404.3267653	13075.87949
405.368326	14166.06348
405.9841723	5091.822754
406.951693	7992.215918
407.2935513	6372.131543
407.3241729	5847.943481
408.0078543	10257.5334
408.0237804	4706.592285
408.3080862	24093.77148
408.9508805	5710.669312
409.0567123	12400.96934
409.1617957	43982.38438
409.3114439	5363.450358
409.3173103	6218.169271
410.0335778	5192.240234
410.165226	9767.010645
410.2573733	13690.59277
411.3326171	24185.57461
411.3576775	5333.419922
413.2658017	6731.586914
413.3371503	5414.199707
413.3482477	24906.7168
413.3734064	31371.60781
414.1974666	5571.398682
414.376751	6785.180176
414.8968474	5875.968872
415.1568793	14322.81914
415.3162313	15379.31719
416.0844758	7397.985742
416.1410934	4997.862305
416.1557407	5330.838542
416.1951046	5008.708496
416.2743431	18529.81836
416.3016637	5370.823364
417.3194586	6033.3479
418.1535788	5957.323047
418.3172385	28900.92305
419.057175	7452.433398
419.3111534	8671.071094
419.3206076	6583.820801
419.323884	9225.974609
421.3397325	7246.443359
421.3632379	6555.811361
422.1390284	5152.687256
423.9817473	7977.692969
424.2819213	54067.81016
425.1260131	7579.77627
425.1354464	412379.9688
425.2853479	11354.71309
425.9606417	4730.672852
426.1389605	86398.93125
427.0024863	6182.022852
427.1338146	23489.33672
427.1428447	7889.090039
428.1371559	5210.428223
429.2396915	10023.16504
429.2628097	5529.842611
430.171292	11364.51602
432.1692025	9284.041113
435.3188329	5039.162207
435.3300516	16888.85391
436.1777467	6140.72627
437.1384015	8129.569043
437.3134928	9845.973047
437.3343914	8603.298047
438.1132561	4427.205322
438.2835051	4838.910767
438.8965373	4250.604492
440.1933597	16385.8748
440.284986	7677.228223
440.2990921	45822.10625
440.922999	4020.46167
441.19674	4289.394043
441.3023473	12458.80898
442.9761678	7339.694141
443.0819079	14757.14297
443.2336232	7958.069922
443.3222972	6304.885938
444.3426924	6373.285645
445.1193011	4284.972656
445.2422424	4194.660156
445.2490751	62888.79688
445.3265877	6032.916699
445.3378077	6055.933203
445.9794932	6650.62207
445.9890237	5433.235449
446.2524343	13903.64961
447.0149717	4902.96936
447.3423376	11748.5959
447.3578039	9026.094922
448.2221405	10838.04688
448.3140441	4291.958008
449.3943869	5285.596582
450.0054919	14627.07598
450.1932505	12884.03125
450.3174313	5648.40498
450.3296795	36802.50039
451.0598806	5897.114258
451.2571657	8712.60459
451.2929504	6925.915723
451.304609	7709.374707
451.3137017	13453.16133
451.3330702	8988.423633
451.9871426	6684.987988
452.0438348	5742.078027
452.1904536	9774.127148
452.3340769	4742.160645
453.1126519	12596.05488
453.3083801	11373.53555
453.329519	4840.911621
454.0400628	14454.49824
454.2572742	15566.40059
454.3119313	4622.625488
454.3132137	4719.00415
454.960041	5019.799316
455.2606704	4562.553223
456.1158387	5065.031738
456.1672367	9247.120508
456.2666644	6026.574414
456.2729023	101474.1922
456.293213	5563.771851
456.9070241	4177.181274
457.0129171	6512.864453
457.0430129	6406.666797
457.2762519	23444.76836
457.3632585	4532.998861
458.2709601	6098.281641
458.3082769	7282.362207
459.3171878	12678.08574
460.0948853	4946.19248
460.2671328	4567.464844
461.3327612	65619.99609
461.3580113	4404.826538
461.9626508	5510.458659
462.3362388	15656.64492
462.9888158	4504.239258
463.3536099	4005.108643
464.0807245	4625.591471
464.9580165	4503.8125
465.31971	13417.82422
465.3448172	6827.003418
465.3657043	19927.19961
465.9921545	6112.068555
466.3036795	12023.93652
466.3690185	5688.129395
467.1014599	9170.741895
467.2310579	15818.43457
467.2875875	8583.832324
467.3084673	7636.857715
467.3162621	5872.627441
467.9610669	6503.724609
469.0555545	4275.054688
469.303353	4643.515625
469.3242096	42698.40234
469.4107758	8811.536914
470.0138352	7332.413086
470.3276546	10406.87598
471.0611095	5487.733398
471.1328502	14680.9291
472.2679027	5549.467773
472.3116526	6528.196582
473.0168596	4473.620605
473.1347053	4715.339111
473.3110246	11674.05781
473.4017528	4183.842773
474.3279777	6602.917871
475.0943099	6415.09707
476.0690366	4988.463623
476.2273373	14229.89355
476.3324786	21915.09258
477.2303813	4935.006348
477.3160055	6061.253809
477.335928	5300.82207
477.4021376	5638.153711
478.2408804	4282.303874
479.335242	54952.03281
480.2328131	6524.372168
480.3192745	5458.775195
480.3385674	12803.8752
481.3322745	16526.90254
483.0752763	19129.32168
483.2823648	3964.231689
483.3147542	4640.502393
483.9445501	4517.418457
484.0745489	5472.566569
484.3113706	22800.27852
484.3238768	50102.28359
485.2983413	6365.11875
485.327284	10185.76035
486.3268748	8202.273535
487.1156732	4735.933594
487.3265848	19576.23906
487.9740502	6560.720313
488.2834732	4121.204102
488.3299813	5803.439941
489.3236247	6097.933008
489.9434008	5089.946289
492.2565333	7385.859473
500.2384797	4920.10791
502.0366436	6410.849902
505.2625178	4120.425415
506.2934252	4047.006836
509.0172085	3962.485107
511.0961199	4126.313477
511.0971776	3680.212891
515.4130786	31809.8168
516.4163859	10073.46094
517.2915776	3550.878092
517.3965637	6831.169629
518.2410599	3749.956299
518.249917	34639.25039
519.2533676	9622.58584
519.2949663	6096.735449
522.2617563	4072.353711
522.2660924	4138.544922
523.3497973	3928.787354
523.3511766	4638.59552
524.0194898	3805.053223
525.3375271	5055.29248
525.3874124	4593.970898
526.2410121	4160.434143
527.0705861	5729.504492
527.1832206	8459.471191
528.187078	3414.077881
529.4703956	4342.219421
530.2135413	3299.472656
530.3178847	5741.840759
531.4078926	24019.58633
531.4859517	13363.46465
532.0951038	3107.168579
532.2907066	6293.31084
532.4113275	6079.145215
532.4394928	15292.85859
532.4892383	4445.218848
533.2490962	6858.902441
533.29387	3223.196533
533.4414213	5800.032715
533.4431428	3722.680237
534.2959569	3170.640381
535.5199307	13787.7207
536.5231004	5534.506738
537.3787392	13001.50098
537.3943202	389313.0938
537.5355078	13317.89043
538.3818693	4122.717041
538.3877295	4623.522705
538.3896036	6536.162598
538.39821	106579.3547
538.5385245	4384.232422
539.3908239	12761.71348
539.401657	13621.14941
539.9931304	4017.097534
540.038002	6252.894238
540.3931455	4301.069153
540.3947128	4348.290039
541.1201734	4383.69043
541.1212625	3915.025879
541.3604085	3291.509521
541.3616021	4258.856934
542.2153444	9201.137207
543.1775031	3222.162354
543.2185238	3559.26355
544.2619706	3978.337891
545.4035383	25920.96777
545.4063426	26068.52669
545.4226233	1302706.7
545.4313309	34328.425
545.4403021	4618.620898
545.4461431	5462.025586
545.501235	5368.673828
546.4105696	12831.0957
546.4263274	393253.5
547.4191593	40739.7625
547.4302519	51012.43516
547.4598924	10841.93809
548.2677348	3233.374512
548.2690048	3150.799561
548.2855124	83470.53438
548.4226512	13311.00254
548.4327795	4423.450439
548.4348189	5197.212402
548.462985	3305.084717
549.2890018	26028.5125
549.4757211	3069.854736
549.5358434	3794.377523
550.2919997	4209.965942
550.3599867	12469.16465
551.3629049	4086.429036
552.2078329	3463.37085
553.3489431	31688.53451
553.3518592	32793.23164
553.3677784	2004934.625
553.3886901	121307.3875
553.400475	3547.733887
554.0774588	3063.359863
554.2789043	3121.446289
554.3552477	13967.52227
554.3714408	602708.9625
554.3928569	37168.07578
555.347407	4750.836426
555.3560398	6885.054443
555.3664731	133598.6906
555.3743203	72020.61563
555.3967735	5631.549854
555.485881	3613.649089
556.2058111	3342.312256
556.3699152	37671.3332
557.0947291	17381.01563
557.3629925	5373.187988
557.3642992	3969.816732
557.3715281	6202.806641
557.3735904	5346.336914
557.5018667	58715.39766
558.093612	5741.537012
558.5050545	17549.69336
559.0918121	4839.498413
559.1511138	6788.782129
559.5071329	4634.820313
559.5172604	35539.06875
560.5207357	11235.25
561.5354992	24601.33008
562.5388025	8291.01709
563.5325644	3951.490723
563.5511056	123472.4984
564.5546515	39973.48281
565.5581111	6500.145215
565.5654646	3773.28894
565.5667527	4872.423828
567.9286721	3726.451416
569.3455746	14088.09395
569.3631596	467547.3188
569.3848402	4079.953044
570.3485121	4730.787695
570.3566785	6146.510132
570.3670957	131064.3203
571.3618916	29326.53516
571.3695157	17990.65283
572.363649	9813.20459
572.3652714	8451.13623
